Data from LSP56_S6_Subt2_15-37-53-583.txt Node
Date: Wed Aug 09 15:37:53 EDT 2023
User: Emmanuel
Spectrometer: USB4A00615
Scans to average: 1
Trigger mode: 1
Integration Time (sec): 1.000000E-2
Electric dark correction enabled: true
Boxcar width: 0
XAxis mode: Wavelengths
Number of Pixels in Spectrum: 3648
>>>>>Begin Spectral Data<<<<<
346.606	-106.32
346.818	-106.32
347.029	-106.32
347.241	47.27
347.452	129.19
347.664	6.31
347.876	49.32
348.087	32.94
348.299	-48.98
348.51	67.75
348.722	-3.93
348.933	-63.32
349.145	2.22
349.356	-40.79
349.568	-24.4
349.779	22.7
349.991	0.17
350.202	-14.17
350.414	59.56
350.625	-16.21
350.836	-46.93
351.048	49.32
351.259	-10.07
351.471	22.7
351.682	75.95
351.893	16.55
352.105	92.33
352.316	61.61
352.527	-36.69
352.739	-79.7
352.95	47.27
353.161	-10.07
353.372	10.41
353.584	28.84
353.795	82.09
354.006	69.8
354.217	-10.07
354.429	2.22
354.64	-57.17
354.851	-61.27
355.062	-30.55
355.274	-48.98
355.485	-44.88
355.696	-139.09
355.907	-124.76
356.118	30.89
356.329	84.14
356.54	-40.79
356.752	-108.37
356.963	135.34
357.174	114.86
357.385	-18.26
357.596	2.22
357.807	-22.36
358.018	-30.55
358.229	71.85
358.44	-3.93
358.651	12.46
358.862	47.27
359.073	-12.12
359.284	8.36
359.495	24.75
359.706	47.27
359.917	80.04
360.128	43.18
360.339	0.17
360.55	51.37
360.761	30.89
360.972	26.79
361.182	-53.08
361.393	14.51
361.604	77.99
361.815	30.89
362.026	96.43
362.237	24.75
362.447	-18.26
362.658	2.22
362.869	94.38
363.08	34.99
363.291	-20.31
363.501	88.23
363.712	-3.93
363.923	61.61
364.134	-34.64
364.344	-75.6
364.555	92.33
364.766	53.42
364.976	12.46
365.187	24.75
365.398	22.7
365.608	-67.41
365.819	-81.75
366.03	-22.36
366.24	92.33
366.451	-196.43
366.662	114.86
366.872	-38.74
367.083	77.99
367.293	73.9
367.504	123.05
367.714	-12.12
367.925	-3.93
368.135	-44.88
368.346	112.81
368.557	16.55
368.767	53.42
368.977	-16.21
369.188	-8.02
369.398	104.62
369.609	84.14
369.819	16.55
370.03	34.99
370.24	133.29
370.451	-42.84
370.661	20.65
370.871	204.97
371.082	-18.26
371.292	108.71
371.502	-32.6
371.713	39.08
371.923	14.51
372.133	53.42
372.344	0.17
372.554	34.99
372.764	59.56
372.975	59.56
373.185	-3.93
373.395	-81.75
373.605	-38.74
373.816	-81.75
374.026	86.19
374.236	-24.4
374.446	-24.4
374.656	34.99
374.867	18.6
375.077	6.31
375.287	59.56
375.497	-32.6
375.707	0.17
375.917	-73.56
376.127	-5.97
376.338	45.23
376.548	-38.74
376.758	-44.88
376.968	112.81
377.178	30.89
377.388	-87.89
377.598	14.51
377.808	-63.32
378.018	127.14
378.228	22.7
378.438	-18.26
378.648	18.6
378.858	86.19
379.068	-44.88
379.278	8.36
379.488	57.51
379.698	-46.93
379.908	-22.36
380.118	32.94
380.327	24.75
380.537	-48.98
380.747	-87.89
380.957	63.66
381.167	0.17
381.377	94.38
381.587	-1.88
381.796	45.23
382.006	-3.93
382.216	100.52
382.426	8.36
382.636	16.55
382.845	14.51
383.055	141.48
383.265	49.32
383.475	34.99
383.684	4.27
383.894	90.28
384.104	-3.93
384.313	37.03
384.523	28.84
384.733	-14.17
384.942	-12.12
385.152	-79.7
385.362	-81.75
385.571	-18.26
385.781	-16.21
385.991	-14.17
386.2	69.8
386.41	-81.75
386.619	69.8
386.829	96.43
387.038	-14.17
387.248	28.84
387.457	20.65
387.667	73.9
387.876	2.22
388.086	-32.6
388.295	-48.98
388.505	45.23
388.714	-14.17
388.924	-53.08
389.133	92.33
389.343	-87.89
389.552	-44.88
389.762	18.6
389.971	-38.74
390.18	-12.12
390.39	114.86
390.599	71.85
390.808	-8.02
391.018	-3.93
391.227	39.08
391.436	4.27
391.646	88.23
391.855	69.8
392.064	-30.55
392.274	121
392.483	-10.07
392.692	26.79
392.901	-38.74
393.111	-38.74
393.32	41.13
393.529	45.23
393.738	90.28
393.947	-1.88
394.157	141.48
394.366	12.46
394.575	112.81
394.784	12.46
394.993	-38.74
395.202	63.66
395.411	-12.12
395.62	147.62
395.83	88.23
396.039	-44.88
396.248	-75.6
396.457	28.84
396.666	22.7
396.875	-16.21
397.084	41.13
397.293	16.55
397.502	-34.64
397.711	-40.79
397.92	51.37
398.129	-38.74
398.338	45.23
398.547	-20.31
398.756	-24.4
398.965	102.57
399.174	34.99
399.382	53.42
399.591	-73.56
399.8	-5.97
400.009	-20.31
400.218	55.47
400.427	-10.07
400.636	77.99
400.844	20.65
401.053	90.28
401.262	-110.42
401.471	77.99
401.68	-53.08
401.888	37.03
402.097	94.38
402.306	-3.93
402.515	12.46
402.723	75.95
402.932	82.09
403.141	71.85
403.35	-24.4
403.558	-32.6
403.767	77.99
403.976	-8.02
404.184	-16.21
404.393	-14.17
404.602	-14.17
404.81	39.08
405.019	-118.61
405.227	-22.36
405.436	55.47
405.645	127.14
405.853	-3.93
406.062	-42.84
406.27	45.23
406.479	-36.69
406.687	12.46
406.896	-65.36
407.104	127.14
407.313	69.8
407.521	30.89
407.73	-5.97
407.938	32.94
408.147	-20.31
408.355	-3.93
408.563	139.43
408.772	-36.69
408.98	137.38
409.189	-26.45
409.397	86.19
409.605	-34.64
409.814	121
410.022	65.71
410.23	-57.17
410.439	51.37
410.647	-1.88
410.855	-69.46
411.064	10.41
411.272	-24.4
411.48	30.89
411.688	59.56
411.897	41.13
412.105	2.22
412.313	98.47
412.521	49.32
412.73	104.62
412.938	-51.03
413.146	-65.36
413.354	82.09
413.562	39.08
413.77	28.84
413.979	94.38
414.187	53.42
414.395	-71.51
414.603	-5.97
414.811	4.27
415.019	0.17
415.227	43.18
415.435	106.67
415.643	94.38
415.851	-10.07
416.059	-18.26
416.267	75.95
416.475	61.61
416.683	32.94
416.891	63.66
417.099	26.79
417.307	133.29
417.515	16.55
417.723	145.58
417.931	151.72
418.139	147.62
418.347	65.71
418.555	0.17
418.763	-28.5
418.971	47.27
419.179	-46.93
419.386	22.7
419.594	-14.17
419.802	-14.17
420.01	45.23
420.218	116.9
420.426	14.51
420.633	61.61
420.841	-1.88
421.049	-36.69
421.257	-1.88
421.464	80.04
421.672	55.47
421.88	32.94
422.088	-26.45
422.295	110.76
422.503	106.67
422.711	86.19
422.918	55.47
423.126	-16.21
423.334	-30.55
423.541	24.75
423.749	-38.74
423.956	-12.12
424.164	22.7
424.372	20.65
424.579	2.22
424.787	96.43
424.994	67.75
425.202	-22.36
425.409	-32.6
425.617	67.75
425.824	-40.79
426.032	-34.64
426.239	-65.36
426.447	161.96
426.654	4.27
426.862	22.7
427.069	82.09
427.277	123.05
427.484	90.28
427.692	53.42
427.899	30.89
428.106	47.27
428.314	67.75
428.521	86.19
428.728	59.56
428.936	82.09
429.143	77.99
429.351	8.36
429.558	-53.08
429.765	-1.88
429.972	112.81
430.18	-61.27
430.387	59.56
430.594	-53.08
430.801	61.61
431.009	-20.31
431.216	73.9
431.423	-12.12
431.63	55.47
431.838	12.46
432.045	73.9
432.252	47.27
432.459	34.99
432.666	28.84
432.873	14.51
433.081	45.23
433.288	59.56
433.495	-108.37
433.702	28.84
433.909	-22.36
434.116	51.37
434.323	34.99
434.53	-22.36
434.737	84.14
434.944	6.31
435.151	18.6
435.358	-100.18
435.565	49.32
435.772	2.22
435.979	16.55
436.186	114.86
436.393	71.85
436.6	110.76
436.807	20.65
437.014	67.75
437.221	-12.12
437.428	-24.4
437.635	139.43
437.841	94.38
438.048	96.43
438.255	-22.36
438.462	0.17
438.669	47.27
438.876	-44.88
439.082	26.79
439.289	-14.17
439.496	-46.93
439.703	51.37
439.91	-161.62
440.116	77.99
440.323	34.99
440.53	-126.8
440.737	-48.98
440.943	43.18
441.15	-44.88
441.357	-91.99
441.563	14.51
441.77	-3.93
441.977	41.13
442.183	6.31
442.39	37.03
442.597	-26.45
442.803	2.22
443.01	-5.97
443.216	-104.28
443.423	114.86
443.63	-61.27
443.836	104.62
444.043	6.31
444.249	12.46
444.456	49.32
444.662	59.56
444.869	34.99
445.075	-16.21
445.282	34.99
445.488	-1.88
445.695	49.32
445.901	-10.07
446.107	92.33
446.314	-3.93
446.52	82.09
446.727	14.51
446.933	20.65
447.139	22.7
447.346	65.71
447.552	41.13
447.759	-87.89
447.965	-34.64
448.171	26.79
448.378	43.18
448.584	73.9
448.79	100.52
448.996	-32.6
449.203	118.95
449.409	-16.21
449.615	34.99
449.821	32.94
450.028	-34.64
450.234	34.99
450.44	47.27
450.646	30.89
450.852	-40.79
451.059	18.6
451.265	26.79
451.471	-61.27
451.677	22.7
451.883	166.06
452.089	49.32
452.295	53.42
452.502	-16.21
452.708	75.95
452.914	59.56
453.12	22.7
453.326	10.41
453.532	151.72
453.738	67.75
453.944	53.42
454.15	-8.02
454.356	71.85
454.562	2.22
454.768	-20.31
454.974	-26.45
455.18	84.14
455.386	116.9
455.592	106.67
455.798	-8.02
456.003	4.27
456.209	102.57
456.415	-20.31
456.621	-8.02
456.827	65.71
457.033	30.89
457.239	8.36
457.444	114.86
457.65	34.99
457.856	-94.04
458.062	14.51
458.268	12.46
458.473	26.79
458.679	30.89
458.885	88.23
459.091	53.42
459.296	71.85
459.502	-53.08
459.708	67.75
459.914	32.94
460.119	41.13
460.325	-32.6
460.531	4.27
460.736	71.85
460.942	100.52
461.147	-32.6
461.353	-36.69
461.559	75.95
461.764	71.85
461.97	-8.02
462.175	-30.55
462.381	112.81
462.587	-26.45
462.792	-102.23
462.998	-8.02
463.203	104.62
463.409	-46.93
463.614	47.27
463.82	37.03
464.025	12.46
464.231	-38.74
464.436	-18.26
464.641	-16.21
464.847	98.47
465.052	14.51
465.258	51.37
465.463	30.89
465.669	65.71
465.874	-8.02
466.079	73.9
466.285	141.48
466.49	16.55
466.695	88.23
466.901	39.08
467.106	16.55
467.311	-69.46
467.516	-18.26
467.722	-14.17
467.927	102.57
468.132	8.36
468.338	-1.88
468.543	-14.17
468.748	-24.4
468.953	6.31
469.158	86.19
469.364	-3.93
469.569	8.36
469.774	37.03
469.979	-10.07
470.184	75.95
470.389	34.99
470.594	18.6
470.8	110.76
471.005	-12.12
471.21	63.66
471.415	39.08
471.62	69.8
471.825	28.84
472.03	2.22
472.235	-16.21
472.44	69.8
472.645	88.23
472.85	32.94
473.055	57.51
473.26	86.19
473.465	-61.27
473.67	-10.07
473.875	82.09
474.08	59.56
474.285	82.09
474.49	-57.17
474.695	34.99
474.899	20.65
475.104	-46.93
475.309	127.14
475.514	-3.93
475.719	-71.51
475.924	65.71
476.128	20.65
476.333	-59.22
476.538	22.7
476.743	164.01
476.948	73.9
477.152	30.89
477.357	-71.51
477.562	98.47
477.767	51.37
477.971	41.13
478.176	67.75
478.381	-63.32
478.585	116.9
478.79	28.84
478.995	26.79
479.199	-32.6
479.404	-1.88
479.609	-3.93
479.813	53.42
480.018	100.52
480.223	129.19
480.427	71.85
480.632	110.76
480.836	96.43
481.041	45.23
481.245	45.23
481.45	18.6
481.654	-51.03
481.859	34.99
482.063	28.84
482.268	102.57
482.472	28.84
482.677	100.52
482.881	59.56
483.086	-36.69
483.29	75.95
483.495	77.99
483.699	84.14
483.903	84.14
484.108	145.58
484.312	34.99
484.517	80.04
484.721	55.47
484.925	-3.93
485.13	26.79
485.334	18.6
485.538	-38.74
485.743	12.46
485.947	-42.84
486.151	-1.88
486.355	37.03
486.56	28.84
486.764	-36.69
486.968	45.23
487.172	10.41
487.377	84.14
487.581	174.25
487.785	6.31
487.989	127.14
488.193	37.03
488.397	104.62
488.602	43.18
488.806	2.22
489.01	14.51
489.214	104.62
489.418	92.33
489.622	-38.74
489.826	104.62
490.03	22.7
490.234	14.51
490.438	-18.26
490.642	41.13
490.846	84.14
491.05	41.13
491.254	-167.76
491.458	204.97
491.662	86.19
491.866	159.91
492.07	22.7
492.274	-10.07
492.478	73.9
492.682	129.19
492.886	-18.26
493.09	84.14
493.294	12.46
493.498	73.9
493.701	30.89
493.905	86.19
494.109	65.71
494.313	10.41
494.517	22.7
494.721	75.95
494.924	63.66
495.128	-71.51
495.332	49.32
495.536	-40.79
495.739	-61.27
495.943	47.27
496.147	47.27
496.351	127.14
496.554	49.32
496.758	-36.69
496.962	-10.07
497.165	63.66
497.369	45.23
497.573	37.03
497.776	133.29
497.98	16.55
498.184	61.61
498.387	20.65
498.591	26.79
498.794	104.62
498.998	24.75
499.202	102.57
499.405	-30.55
499.609	151.72
499.812	0.17
500.016	-8.02
500.219	164.01
500.423	143.53
500.626	22.7
500.83	73.9
501.033	96.43
501.237	-16.21
501.44	168.1
501.643	77.99
501.847	65.71
502.05	28.84
502.254	4.27
502.457	32.94
502.66	86.19
502.864	34.99
503.067	22.7
503.271	41.13
503.474	32.94
503.677	45.23
503.88	73.9
504.084	41.13
504.287	-40.79
504.49	86.19
504.694	43.18
504.897	69.8
505.1	37.03
505.303	-30.55
505.507	-32.6
505.71	-14.17
505.913	84.14
506.116	-5.97
506.319	157.86
506.522	30.89
506.726	114.86
506.929	24.75
507.132	-5.97
507.335	73.9
507.538	4.27
507.741	24.75
507.944	-28.5
508.147	8.36
508.35	45.23
508.553	10.41
508.756	-24.4
508.959	61.61
509.163	92.33
509.366	106.67
509.569	20.65
509.771	-73.56
509.974	45.23
510.177	12.46
510.38	16.55
510.583	32.94
510.786	-46.93
510.989	106.67
511.192	80.04
511.395	16.55
511.598	121
511.801	59.56
512.004	-22.36
512.206	-67.41
512.409	16.55
512.612	16.55
512.815	14.51
513.018	-16.21
513.22	108.71
513.423	116.9
513.626	22.7
513.829	-71.51
514.032	18.6
514.234	55.47
514.437	45.23
514.64	118.95
514.842	24.75
515.045	65.71
515.248	26.79
515.45	28.84
515.653	14.51
515.856	135.34
516.058	-18.26
516.261	202.92
516.464	12.46
516.666	116.9
516.869	118.95
517.071	114.86
517.274	145.58
517.477	18.6
517.679	53.42
517.882	92.33
518.084	18.6
518.287	-44.88
518.489	123.05
518.692	112.81
518.894	69.8
519.097	172.2
519.299	-28.5
519.501	12.46
519.704	-12.12
519.906	96.43
520.109	147.62
520.311	32.94
520.514	174.25
520.716	-20.31
520.918	-69.46
521.121	137.38
521.323	-61.27
521.525	-5.97
521.728	170.15
521.93	110.76
522.132	80.04
522.335	55.47
522.537	20.65
522.739	34.99
522.941	34.99
523.144	41.13
523.346	30.89
523.548	75.95
523.75	86.19
523.952	106.67
524.155	49.32
524.357	-3.93
524.559	47.27
524.761	-1.88
524.963	98.47
525.165	43.18
525.368	14.51
525.57	63.66
525.772	90.28
525.974	10.41
526.176	57.51
526.378	90.28
526.58	121
526.782	114.86
526.984	84.14
527.186	96.43
527.388	84.14
527.59	127.14
527.792	110.76
527.994	118.95
528.196	112.81
528.398	39.08
528.6	84.14
528.802	14.51
529.004	53.42
529.206	49.32
529.408	112.81
529.609	86.19
529.811	30.89
530.013	86.19
530.215	129.19
530.417	0.17
530.619	55.47
530.821	149.67
531.022	14.51
531.224	-32.6
531.426	121
531.628	6.31
531.829	-116.56
532.031	102.57
532.233	-20.31
532.435	32.94
532.636	22.7
532.838	135.34
533.04	2.22
533.241	-40.79
533.443	129.19
533.645	86.19
533.846	-5.97
534.048	55.47
534.25	121
534.451	65.71
534.653	-57.17
534.855	104.62
535.056	-42.84
535.258	-16.21
535.459	121
535.661	-10.07
535.862	112.81
536.064	-28.5
536.265	34.99
536.467	47.27
536.668	6.31
536.87	123.05
537.071	4.27
537.273	57.51
537.474	49.32
537.676	61.61
537.877	16.55
538.078	-8.02
538.28	34.99
538.481	16.55
538.683	86.19
538.884	-20.31
539.085	84.14
539.287	47.27
539.488	65.71
539.689	-16.21
539.891	75.95
540.092	18.6
540.293	-30.55
540.495	30.89
540.696	45.23
540.897	-77.65
541.098	41.13
541.3	53.42
541.501	26.79
541.702	82.09
541.903	63.66
542.104	80.04
542.306	63.66
542.507	-26.45
542.708	55.47
542.909	-18.26
543.11	37.03
543.311	14.51
543.512	22.7
543.713	0.17
543.915	-34.64
544.116	51.37
544.317	49.32
544.518	96.43
544.719	16.55
544.92	67.75
545.121	43.18
545.322	-65.36
545.523	-104.28
545.724	108.71
545.925	84.14
546.126	14.51
546.327	100.52
546.528	102.57
546.729	67.75
546.929	-71.51
547.13	67.75
547.331	133.29
547.532	10.41
547.733	164.01
547.934	-16.21
548.135	90.28
548.336	65.71
548.536	-28.5
548.737	24.75
548.938	28.84
549.139	14.51
549.34	67.75
549.54	8.36
549.741	34.99
549.942	-12.12
550.143	-290.64
550.343	112.81
550.544	90.28
550.745	125.1
550.945	110.76
551.146	55.47
551.347	4.27
551.547	63.66
551.748	90.28
551.949	-51.03
552.149	114.86
552.35	-57.17
552.551	39.08
552.751	-67.41
552.952	-12.12
553.152	73.9
553.353	-102.23
553.553	20.65
553.754	112.81
553.954	2.22
554.155	41.13
554.356	41.13
554.556	77.99
554.756	-53.08
554.957	75.95
555.157	71.85
555.358	164.01
555.558	131.24
555.759	102.57
555.959	-48.98
556.159	49.32
556.36	129.19
556.56	14.51
556.761	2.22
556.961	12.46
557.161	-38.74
557.362	84.14
557.562	-10.07
557.762	86.19
557.963	94.38
558.163	59.56
558.363	45.23
558.563	37.03
558.764	55.47
558.964	116.9
559.164	-5.97
559.364	151.72
559.565	-38.74
559.765	30.89
559.965	-14.17
560.165	32.94
560.365	43.18
560.565	53.42
560.766	57.51
560.966	73.9
561.166	-48.98
561.366	82.09
561.566	16.55
561.766	69.8
561.966	10.41
562.166	151.72
562.366	104.62
562.566	43.18
562.766	47.27
562.966	-36.69
563.166	67.75
563.366	43.18
563.566	59.56
563.766	57.51
563.966	65.71
564.166	-8.02
564.366	53.42
564.566	80.04
564.766	131.24
564.966	-44.88
565.166	55.47
565.366	45.23
565.565	-46.93
565.765	49.32
565.965	-65.36
566.165	153.77
566.365	133.29
566.565	37.03
566.764	26.79
566.964	49.32
567.164	26.79
567.364	-71.51
567.564	108.71
567.763	-5.97
567.963	-8.02
568.163	104.62
568.362	125.1
568.562	104.62
568.762	37.03
568.961	84.14
569.161	59.56
569.361	49.32
569.56	123.05
569.76	-18.26
569.96	157.86
570.159	-91.99
570.359	-96.08
570.558	86.19
570.758	51.37
570.958	-12.12
571.157	114.86
571.357	137.38
571.556	-20.31
571.756	57.51
571.955	4.27
572.155	-44.88
572.354	61.61
572.554	-16.21
572.753	4.27
572.953	88.23
573.152	137.38
573.351	-67.41
573.551	41.13
573.75	-38.74
573.95	51.37
574.149	24.75
574.348	10.41
574.548	32.94
574.747	-71.51
574.946	41.13
575.146	-53.08
575.345	86.19
575.544	-143.19
575.744	14.51
575.943	-59.22
576.142	67.75
576.342	-10.07
576.541	135.34
576.74	49.32
576.939	123.05
577.138	145.58
577.338	80.04
577.537	-57.17
577.736	-59.22
577.935	24.75
578.134	37.03
578.333	10.41
578.533	100.52
578.732	129.19
578.931	-61.27
579.13	-38.74
579.329	22.7
579.528	-40.79
579.727	67.75
579.926	-63.32
580.125	84.14
580.324	51.37
580.523	57.51
580.722	-18.26
580.921	-53.08
581.12	34.99
581.319	32.94
581.518	65.71
581.717	57.51
581.916	73.9
582.115	-18.26
582.314	32.94
582.513	-40.79
582.712	34.99
582.911	32.94
583.109	-44.88
583.308	14.51
583.507	6.31
583.706	98.47
583.905	-22.36
584.104	-16.21
584.302	-77.65
584.501	55.47
584.7	-18.26
584.899	2.22
585.098	34.99
585.296	69.8
585.495	-24.4
585.694	16.55
585.892	32.94
586.091	-40.79
586.29	22.7
586.488	-8.02
586.687	84.14
586.886	-1.88
587.084	16.55
587.283	-5.97
587.482	24.75
587.68	-40.79
587.879	100.52
588.077	37.03
588.276	-59.22
588.475	-14.17
588.673	18.6
588.872	53.42
589.07	139.43
589.269	32.94
589.467	139.43
589.666	-100.18
589.864	90.28
590.063	-16.21
590.261	-26.45
590.46	96.43
590.658	24.75
590.857	-85.84
591.055	34.99
591.253	-40.79
591.452	-18.26
591.65	16.55
591.848	104.62
592.047	84.14
592.245	6.31
592.444	6.31
592.642	-87.89
592.84	41.13
593.038	10.41
593.237	-26.45
593.435	20.65
593.633	147.62
593.832	-73.56
594.03	41.13
594.228	-77.65
594.426	69.8
594.624	-14.17
594.823	12.46
595.021	110.76
595.219	45.23
595.417	39.08
595.615	12.46
595.813	61.61
596.012	67.75
596.21	4.27
596.408	2.22
596.606	51.37
596.804	147.62
597.002	-18.26
597.2	121
597.398	34.99
597.596	4.27
597.794	75.95
597.992	-1.88
598.19	6.31
598.388	59.56
598.586	-28.5
598.784	34.99
598.982	-22.36
599.18	186.54
599.378	92.33
599.576	53.42
599.774	18.6
599.972	80.04
600.17	4.27
600.368	51.37
600.565	12.46
600.763	88.23
600.961	55.47
601.159	127.14
601.357	41.13
601.555	53.42
601.752	53.42
601.95	43.18
602.148	32.94
602.346	-24.4
602.544	164.01
602.741	-114.52
602.939	-65.36
603.137	41.13
603.334	-108.37
603.532	30.89
603.73	22.7
603.927	161.96
604.125	2.22
604.323	-48.98
604.52	57.51
604.718	-26.45
604.916	65.71
605.113	-135
605.311	61.61
605.508	34.99
605.706	108.71
605.904	39.08
606.101	-24.4
606.299	30.89
606.496	41.13
606.694	84.14
606.891	24.75
607.089	-53.08
607.286	12.46
607.484	20.65
607.681	20.65
607.879	123.05
608.076	73.9
608.273	41.13
608.471	112.81
608.668	-106.32
608.866	-59.22
609.063	-139.09
609.26	-44.88
609.458	-87.89
609.655	26.79
609.852	-57.17
610.05	-10.07
610.247	-46.93
610.444	88.23
610.642	8.36
610.839	-73.56
611.036	26.79
611.233	2.22
611.431	-96.08
611.628	-38.74
