Data from LSP58_S8_Subt2_15-47-47-402.txt Node
Date: Wed Aug 09 15:47:47 EDT 2023
User: Emmanuel
Spectrometer: USB4A00615
Scans to average: 1
Trigger mode: 1
Integration Time (sec): 1.300000E-2
Electric dark correction enabled: true
Boxcar width: 0
XAxis mode: Wavelengths
Number of Pixels in Spectrum: 3648
>>>>>Begin Spectral Data<<<<<
346.606	-108.2
346.818	-108.2
347.029	-108.2
347.241	108.88
347.452	110.93
347.664	12.63
347.876	4.44
348.087	-36.52
348.299	47.44
348.51	-11.95
348.722	-42.67
348.933	-1.71
349.145	-16.04
349.356	2.39
349.568	-54.95
349.779	55.64
349.991	41.3
350.202	-9.9
350.414	104.79
350.625	-26.28
350.836	35.16
351.048	92.5
351.259	-3.75
351.471	43.35
351.682	67.92
351.893	-5.8
352.105	8.53
352.316	16.73
352.527	26.96
352.739	-26.28
352.95	29.01
353.161	-77.48
353.372	-11.95
353.584	43.35
353.795	102.74
354.006	104.79
354.217	35.16
354.429	49.49
354.64	-59.05
354.851	10.58
355.062	16.73
355.274	6.49
355.485	-81.58
355.696	0.34
355.907	-65.19
356.118	-13.99
356.329	129.36
356.54	-65.19
356.752	-36.52
356.963	88.4
357.174	100.69
357.385	39.25
357.596	29.01
357.807	-7.85
358.018	18.77
358.229	117.08
358.44	-67.24
358.651	59.73
358.862	10.58
359.073	33.11
359.284	-3.75
359.495	18.77
359.706	18.77
359.917	31.06
360.128	45.4
360.339	-32.43
360.55	53.59
360.761	-20.14
360.972	6.49
361.182	20.82
361.393	94.55
361.604	61.78
361.815	39.25
362.026	137.56
362.237	33.11
362.447	4.44
362.658	55.64
362.869	82.26
363.08	18.77
363.291	-81.58
363.501	108.88
363.712	119.12
363.923	67.92
364.134	-22.19
364.344	45.4
364.555	112.98
364.766	41.3
364.976	72.02
365.187	-1.71
365.398	-7.85
365.608	4.44
365.819	4.44
366.03	-34.47
366.24	127.32
366.451	-50.86
366.662	112.98
366.872	45.4
367.083	96.6
367.293	-1.71
367.504	51.54
367.714	29.01
367.925	84.31
368.135	6.49
368.346	-16.04
368.557	55.64
368.767	41.3
368.977	20.82
369.188	4.44
369.398	117.08
369.609	123.22
369.819	-22.19
370.03	59.73
370.24	69.97
370.451	31.06
370.661	22.87
370.871	98.64
371.082	88.4
371.292	145.75
371.502	88.4
371.713	10.58
371.923	-81.58
372.133	57.68
372.344	94.55
372.554	69.97
372.764	39.25
372.975	0.34
373.185	55.64
373.395	-52.91
373.605	-36.52
373.816	31.06
374.026	145.75
374.236	-54.95
374.446	59.73
374.656	-42.67
374.867	39.25
375.077	45.4
375.287	110.93
375.497	92.5
375.707	10.58
375.917	4.44
376.127	47.44
376.338	16.73
376.548	-32.43
376.758	51.54
376.968	51.54
377.178	35.16
377.388	72.02
377.598	2.39
377.808	-59.05
378.018	149.84
378.228	-73.39
378.438	45.4
378.648	-83.63
378.858	121.17
379.068	-61.1
379.278	49.49
379.488	51.54
379.698	-3.75
379.908	-3.75
380.118	29.01
380.327	43.35
380.537	-77.48
380.747	-67.24
380.957	74.07
381.167	-71.34
381.377	65.88
381.587	82.26
381.796	86.36
382.006	8.53
382.216	82.26
382.426	78.16
382.636	45.4
382.845	-24.23
383.055	119.12
383.265	78.16
383.475	88.4
383.684	12.63
383.894	37.2
384.104	-106.15
384.313	55.64
384.523	-30.38
384.733	49.49
384.942	-85.67
385.152	24.92
385.362	-83.63
385.571	20.82
385.781	59.73
385.991	-30.38
386.2	88.4
386.41	-120.49
386.619	82.26
386.829	65.88
387.038	-71.34
387.248	125.27
387.457	98.64
387.667	69.97
387.876	-20.14
388.086	-28.33
388.295	22.87
388.505	166.23
388.714	82.26
388.924	-13.99
389.133	129.36
389.343	-5.8
389.552	-30.38
389.762	59.73
389.971	8.53
390.18	16.73
390.39	141.65
390.599	45.4
390.808	0.34
391.018	22.87
391.227	6.49
391.436	-16.04
391.646	82.26
391.855	45.4
392.064	-44.71
392.274	133.46
392.483	-13.99
392.692	78.16
392.901	29.01
393.111	6.49
393.32	12.63
393.529	84.31
393.738	-48.81
393.947	22.87
394.157	131.41
394.366	110.93
394.575	-9.9
394.784	-24.23
394.993	-87.72
395.202	37.2
395.411	63.83
395.62	117.08
395.83	86.36
396.039	-50.86
396.248	-136.87
396.457	76.12
396.666	-59.05
396.875	-11.95
397.084	12.63
397.293	29.01
397.502	-42.67
397.711	-85.67
397.92	-3.75
398.129	-11.95
398.338	-48.81
398.547	20.82
398.756	37.2
398.965	147.8
399.174	29.01
399.382	20.82
399.591	-34.47
399.8	29.01
400.009	-24.23
400.218	33.11
400.427	117.08
400.636	37.2
400.844	47.44
401.053	76.12
401.262	-61.1
401.471	135.51
401.68	-48.81
401.888	29.01
402.097	110.93
402.306	-42.67
402.515	4.44
402.723	100.69
402.932	20.82
403.141	74.07
403.35	16.73
403.558	-40.62
403.767	22.87
403.976	-52.91
404.184	47.44
404.393	26.96
404.602	31.06
404.81	10.58
405.019	-59.05
405.227	88.4
405.436	-9.9
405.645	37.2
405.853	16.73
406.062	-50.86
406.27	223.57
406.479	-18.09
406.687	-26.28
406.896	-79.53
407.104	61.78
407.313	-7.85
407.521	24.92
407.73	45.4
407.938	43.35
408.147	14.68
408.355	12.63
408.563	92.5
408.772	20.82
408.98	166.23
409.189	49.49
409.397	129.36
409.605	24.92
409.814	63.83
410.022	26.96
410.23	59.73
410.439	90.45
410.647	51.54
410.855	-65.19
411.064	39.25
411.272	49.49
411.48	82.26
411.688	41.3
411.897	29.01
412.105	-7.85
412.313	119.12
412.521	-34.47
412.73	188.75
412.938	-38.57
413.146	-67.24
413.354	22.87
413.562	-13.99
413.77	110.93
413.979	74.07
414.187	55.64
414.395	-59.05
414.603	-16.04
414.811	8.53
415.019	0.34
415.227	16.73
415.435	10.58
415.643	86.36
415.851	-5.8
416.059	67.92
416.267	6.49
416.475	55.64
416.683	-1.71
416.891	92.5
417.099	65.88
417.307	100.69
417.515	22.87
417.723	59.73
417.931	61.78
418.139	131.41
418.347	35.16
418.555	119.12
418.763	125.27
418.971	0.34
419.179	-61.1
419.386	108.88
419.594	10.58
419.802	6.49
420.01	4.44
420.218	72.02
420.426	-20.14
420.633	78.16
420.841	72.02
421.049	-67.24
421.257	-3.75
421.464	35.16
421.672	92.5
421.88	-11.95
422.088	6.49
422.295	41.3
422.503	129.36
422.711	178.51
422.918	82.26
423.126	18.77
423.334	-24.23
423.541	-3.75
423.749	-32.43
423.956	37.2
424.164	8.53
424.372	37.2
424.579	-67.24
424.787	-18.09
424.994	121.17
425.202	-57
425.409	0.34
425.617	98.64
425.824	-87.72
426.032	-40.62
426.239	-46.76
426.447	41.3
426.654	-13.99
426.862	63.83
427.069	8.53
427.277	35.16
427.484	55.64
427.692	88.4
427.899	24.92
428.106	49.49
428.314	67.92
428.521	92.5
428.728	39.25
428.936	16.73
429.143	76.12
429.351	102.74
429.558	96.6
429.765	12.63
429.972	88.4
430.18	41.3
430.387	127.32
430.594	2.39
430.801	67.92
431.009	4.44
431.216	29.01
431.423	139.6
431.63	-9.9
431.838	82.26
432.045	22.87
432.252	90.45
432.459	110.93
432.666	6.49
432.873	31.06
433.081	-52.91
433.288	26.96
433.495	-97.96
433.702	-67.24
433.909	8.53
434.116	110.93
434.323	-16.04
434.53	63.83
434.737	125.27
434.944	69.97
435.151	-50.86
435.358	-124.58
435.565	74.07
435.772	-42.67
435.979	76.12
436.186	102.74
436.393	31.06
436.6	145.75
436.807	4.44
437.014	90.45
437.221	4.44
437.428	74.07
437.635	51.54
437.841	151.89
438.048	-18.09
438.255	2.39
438.462	-44.71
438.669	47.44
438.876	-20.14
439.082	-1.71
439.289	8.53
439.496	-44.71
439.703	-81.58
439.91	-114.34
440.116	24.92
440.323	45.4
440.53	39.25
440.737	-50.86
440.943	65.88
441.15	106.84
441.357	-106.15
441.563	41.3
441.77	-9.9
441.977	10.58
442.183	-30.38
442.39	65.88
442.597	-108.2
442.803	-32.43
443.01	24.92
443.216	-124.58
443.423	164.18
443.63	-7.85
443.836	117.08
444.043	-67.24
444.249	20.82
444.456	26.96
444.662	-11.95
444.869	-57
445.075	-22.19
445.282	0.34
445.488	-9.9
445.695	-28.33
445.901	8.53
446.107	108.88
446.314	-73.39
446.52	88.4
446.727	74.07
446.933	-7.85
447.139	53.59
447.346	98.64
447.552	-38.57
447.759	-24.23
447.965	4.44
448.171	76.12
448.378	-5.8
448.584	61.78
448.79	106.84
448.996	-1.71
449.203	67.92
449.409	-40.62
449.615	94.55
449.821	-54.95
450.028	41.3
450.234	14.68
450.44	53.59
450.646	69.97
450.852	-73.39
451.059	20.82
451.265	4.44
451.471	-83.63
451.677	49.49
451.883	90.45
452.089	74.07
452.295	74.07
452.502	-48.81
452.708	6.49
452.914	119.12
453.12	86.36
453.326	47.44
453.532	112.98
453.738	-32.43
453.944	90.45
454.15	-3.75
454.356	106.84
454.562	-36.52
454.768	43.35
454.974	-22.19
455.18	147.8
455.386	43.35
455.592	67.92
455.798	96.6
456.003	49.49
456.209	76.12
456.415	24.92
456.621	115.03
456.827	102.74
457.033	55.64
457.239	41.3
457.444	-52.91
457.65	55.64
457.856	-5.8
458.062	41.3
458.268	-40.62
458.473	33.11
458.679	53.59
458.885	65.88
459.091	78.16
459.296	47.44
459.502	-46.76
459.708	47.44
459.914	-48.81
460.119	4.44
460.325	-102.06
460.531	-7.85
460.736	67.92
460.942	41.3
461.147	45.4
461.353	45.4
461.559	2.39
461.764	29.01
461.97	8.53
462.175	-18.09
462.381	86.36
462.587	0.34
462.792	-112.3
462.998	92.5
463.203	51.54
463.409	-36.52
463.614	69.97
463.82	29.01
464.025	88.4
464.231	10.58
464.436	39.25
464.641	-7.85
464.847	112.98
465.052	6.49
465.258	-22.19
465.463	74.07
465.669	86.36
465.874	41.3
466.079	41.3
466.285	106.84
466.49	82.26
466.695	69.97
466.901	102.74
467.106	-71.34
467.311	-61.1
467.516	14.68
467.722	-13.99
467.927	0.34
468.132	31.06
468.338	-1.71
468.543	41.3
468.748	4.44
468.953	18.77
469.158	-22.19
469.364	16.73
469.569	82.26
469.774	72.02
469.979	-11.95
470.184	24.92
470.389	65.88
470.594	22.87
470.8	72.02
471.005	57.68
471.21	-77.48
471.415	86.36
471.62	51.54
471.825	112.98
472.03	57.68
472.235	6.49
472.44	35.16
472.645	92.5
472.85	108.88
473.055	18.77
473.26	69.97
473.465	-46.76
473.67	-9.9
473.875	74.07
474.08	31.06
474.285	172.37
474.49	0.34
474.695	78.16
474.899	121.17
475.104	20.82
475.309	10.58
475.514	35.16
475.719	-34.47
475.924	125.27
476.128	-3.75
476.333	-30.38
476.538	24.92
476.743	223.57
476.948	-73.39
477.152	53.59
477.357	-22.19
477.562	151.89
477.767	10.58
477.971	18.77
478.176	14.68
478.381	-20.14
478.585	80.21
478.79	4.44
478.995	-32.43
479.199	-1.71
479.404	55.64
479.609	22.87
479.813	8.53
480.018	18.77
480.223	51.54
480.427	102.74
480.632	74.07
480.836	43.35
481.041	90.45
481.245	69.97
481.45	18.77
481.654	-18.09
481.859	-22.19
482.063	67.92
482.268	72.02
482.472	-16.04
482.677	67.92
482.881	12.63
483.086	-28.33
483.29	102.74
483.495	80.21
483.699	-7.85
483.903	-28.33
484.108	53.59
484.312	72.02
484.517	33.11
484.721	41.3
484.925	-65.19
485.13	-22.19
485.334	-81.58
485.538	-16.04
485.743	18.77
485.947	-18.09
486.151	55.64
486.355	-38.57
486.56	-28.33
486.764	-30.38
486.968	0.34
487.172	8.53
487.377	-18.09
487.581	37.2
487.785	82.26
487.989	158.03
488.193	-112.3
488.397	53.59
488.602	26.96
488.806	-24.23
489.01	59.73
489.214	59.73
489.418	127.32
489.622	-87.72
489.826	39.25
490.03	49.49
490.234	33.11
490.438	51.54
490.642	-1.71
490.846	84.31
491.05	-59.05
491.254	-263.85
491.458	190.8
491.662	-57
491.866	180.56
492.07	-30.38
492.274	14.68
492.478	47.44
492.682	158.03
492.886	-16.04
493.09	20.82
493.294	96.6
493.498	37.2
493.701	14.68
493.905	135.51
494.109	6.49
494.313	22.87
494.517	45.4
494.721	186.71
494.924	35.16
495.128	90.45
495.332	65.88
495.536	8.53
495.739	-54.95
495.943	61.78
496.147	78.16
496.351	115.03
496.554	-3.75
496.758	-91.82
496.962	6.49
497.165	-11.95
497.369	41.3
497.573	139.6
497.776	18.77
497.98	6.49
498.184	-61.1
498.387	-36.52
498.591	-13.99
498.794	84.31
498.998	16.73
499.202	125.27
499.405	24.92
499.609	82.26
499.812	14.68
500.016	-77.48
500.219	8.53
500.423	8.53
500.626	-3.75
500.83	51.54
501.033	31.06
501.237	-52.91
501.44	78.16
501.643	-5.8
501.847	-44.71
502.05	49.49
502.254	-87.72
502.457	84.31
502.66	35.16
502.864	162.13
503.067	-36.52
503.271	43.35
503.474	88.4
503.677	160.08
503.88	-22.19
504.084	98.64
504.287	-54.95
504.49	96.6
504.694	-13.99
504.897	-50.86
505.1	53.59
505.303	74.07
505.507	10.58
505.71	-59.05
505.913	133.46
506.116	41.3
506.319	61.78
506.522	63.83
506.726	151.89
506.929	-36.52
507.132	-28.33
507.335	69.97
507.538	-42.67
507.741	47.44
507.944	-11.95
508.147	8.53
508.35	-81.58
508.553	49.49
508.756	-61.1
508.959	123.22
509.163	96.6
509.366	67.92
509.569	-1.71
509.771	0.34
509.974	49.49
510.177	26.96
510.38	16.73
510.583	90.45
510.786	-67.24
510.989	8.53
511.192	106.84
511.395	55.64
511.598	69.97
511.801	72.02
512.004	-57
512.206	-79.53
512.409	31.06
512.612	-30.38
512.815	41.3
513.018	37.2
513.22	147.8
513.423	110.93
513.626	47.44
513.829	-16.04
514.032	-87.72
514.234	29.01
514.437	31.06
514.64	129.36
514.842	-22.19
515.045	47.44
515.248	-13.99
515.45	131.41
515.653	-79.53
515.856	88.4
516.058	-63.15
516.261	119.12
516.464	-38.57
516.666	63.83
516.869	57.68
517.071	43.35
517.274	92.5
517.477	-40.62
517.679	96.6
517.882	59.73
518.084	43.35
518.287	-13.99
518.489	51.54
518.692	18.77
518.894	110.93
519.097	141.65
519.299	59.73
519.501	-30.38
519.704	76.12
519.906	35.16
520.109	112.98
520.311	49.49
520.514	117.08
520.716	8.53
520.918	-32.43
521.121	31.06
521.323	-38.57
521.525	53.59
521.728	63.83
521.93	-34.47
522.132	41.3
522.335	26.96
522.537	49.49
522.739	94.55
522.941	-9.9
523.144	20.82
523.346	74.07
523.548	74.07
523.75	31.06
523.952	0.34
524.155	67.92
524.357	69.97
524.559	-54.95
524.761	33.11
524.963	-16.04
525.165	22.87
525.368	-65.19
525.57	86.36
525.772	104.79
525.974	-83.63
526.176	47.44
526.378	41.3
526.58	110.93
526.782	22.87
526.984	53.59
527.186	12.63
527.388	104.79
527.59	65.88
527.792	84.31
527.994	53.59
528.196	53.59
528.398	29.01
528.6	115.03
528.802	96.6
529.004	78.16
529.206	41.3
529.408	86.36
529.609	4.44
529.811	108.88
530.013	65.88
530.215	78.16
530.417	53.59
530.619	55.64
530.821	80.21
531.022	67.92
531.224	26.96
531.426	88.4
531.628	80.21
531.829	-18.09
532.031	139.6
532.233	-36.52
532.435	-1.71
532.636	-7.85
532.838	74.07
533.04	16.73
533.241	-40.62
533.443	65.88
533.645	164.18
533.846	26.96
534.048	-7.85
534.25	129.36
534.451	49.49
534.653	-97.96
534.855	49.49
535.056	-44.71
535.258	35.16
535.459	37.2
535.661	41.3
535.862	55.64
536.064	96.6
536.265	26.96
536.467	78.16
536.668	37.2
536.87	20.82
537.071	-48.81
537.273	8.53
537.474	-61.1
537.676	6.49
537.877	74.07
538.078	20.82
538.28	53.59
538.481	-50.86
538.683	65.88
538.884	65.88
539.085	-75.43
539.287	33.11
539.488	149.84
539.689	10.58
539.891	110.93
540.092	-1.71
540.293	24.92
540.495	84.31
540.696	8.53
540.897	-28.33
541.098	20.82
541.3	98.64
541.501	-54.95
541.702	78.16
541.903	16.73
542.104	45.4
542.306	-11.95
542.507	67.92
542.708	76.12
542.909	-36.52
543.11	84.31
543.311	6.49
543.512	-18.09
543.713	-9.9
543.915	8.53
544.116	76.12
544.317	74.07
544.518	137.56
544.719	53.59
544.92	16.73
545.121	-32.43
545.322	4.44
545.523	-32.43
545.724	102.74
545.925	10.58
546.126	2.39
546.327	141.65
546.528	43.35
546.729	49.49
546.929	-69.29
547.13	-63.15
547.331	31.06
547.532	8.53
547.733	55.64
547.934	45.4
548.135	33.11
548.336	131.41
548.536	16.73
548.737	-32.43
548.938	49.49
549.139	20.82
549.34	61.78
549.54	33.11
549.741	31.06
549.942	47.44
550.143	-331.43
550.343	119.12
550.544	37.2
550.745	47.44
550.945	43.35
551.146	53.59
551.347	14.68
551.547	65.88
551.748	10.58
551.949	-65.19
552.149	67.92
552.35	-22.19
552.551	100.69
552.751	18.77
552.952	61.78
553.152	39.25
553.353	-116.39
553.553	-9.9
553.754	26.96
553.954	47.44
554.155	22.87
554.356	6.49
554.556	20.82
554.756	-13.99
554.957	-30.38
555.157	-16.04
555.358	145.75
555.558	16.73
555.759	67.92
555.959	53.59
556.159	-42.67
556.36	12.63
556.56	14.68
556.761	-32.43
556.961	31.06
557.161	-190.12
557.362	151.89
557.562	24.92
557.762	57.68
557.963	22.87
558.163	88.4
558.363	55.64
558.563	22.87
558.764	76.12
558.964	61.78
559.164	18.77
559.364	43.35
559.565	-50.86
559.765	84.31
559.965	47.44
560.165	26.96
560.365	-16.04
560.565	-24.23
560.766	2.39
560.966	84.31
561.166	-13.99
561.366	39.25
561.566	78.16
561.766	33.11
561.966	12.63
562.166	112.98
562.366	51.54
562.566	88.4
562.766	10.58
562.966	-106.15
563.166	-36.52
563.366	108.88
563.566	-63.15
563.766	45.4
563.966	49.49
564.166	45.4
564.366	35.16
564.566	61.78
564.766	57.68
564.966	2.39
565.166	-11.95
565.366	4.44
565.565	20.82
565.765	-11.95
565.965	26.96
566.165	67.92
566.365	69.97
566.565	76.12
566.764	72.02
566.964	35.16
567.164	-13.99
567.364	67.92
567.564	39.25
567.763	22.87
567.963	57.68
568.163	-38.57
568.362	104.79
568.562	49.49
568.762	-24.23
568.961	39.25
569.161	45.4
569.361	65.88
569.56	43.35
569.76	-44.71
569.96	121.17
570.159	-20.14
570.359	-91.82
570.558	59.73
570.758	127.32
570.958	-11.95
571.157	72.02
571.357	125.27
571.556	-13.99
571.756	35.16
571.955	72.02
572.155	-40.62
572.354	-5.8
572.554	-9.9
572.753	10.58
572.953	18.77
573.152	61.78
573.351	-44.71
573.551	43.35
573.75	16.73
573.95	57.68
574.149	65.88
574.348	-22.19
574.548	2.39
574.747	0.34
574.946	102.74
575.146	26.96
575.345	65.88
575.544	-116.39
575.744	-28.33
575.943	-95.91
576.142	104.79
576.342	2.39
576.541	92.5
576.74	8.53
576.939	51.54
577.138	61.78
577.338	90.45
577.537	-122.54
577.736	-40.62
577.935	59.73
578.134	78.16
578.333	10.58
578.533	-7.85
578.732	-13.99
578.931	-34.47
579.13	-40.62
579.329	69.97
579.528	-71.34
579.727	26.96
579.926	-26.28
580.125	65.88
580.324	41.3
580.523	131.41
580.722	-38.57
580.921	8.53
581.12	47.44
581.319	2.39
581.518	125.27
581.717	29.01
581.916	8.53
582.115	20.82
582.314	22.87
582.513	10.58
582.712	-38.57
582.911	84.31
583.109	-122.54
583.308	18.77
583.507	4.44
583.706	74.07
583.905	-20.14
584.104	18.77
584.302	-22.19
584.501	-18.09
584.7	-46.76
584.899	-22.19
585.098	35.16
585.296	86.36
585.495	-36.52
585.694	0.34
585.892	49.49
586.091	16.73
586.29	39.25
586.488	-36.52
586.687	53.59
586.886	24.92
587.084	65.88
587.283	29.01
587.482	49.49
587.68	-11.95
587.879	82.26
588.077	94.55
588.276	-11.95
588.475	29.01
588.673	16.73
588.872	82.26
589.07	86.36
589.269	33.11
589.467	63.83
589.666	-75.43
589.864	155.99
590.063	61.78
590.261	67.92
590.46	-3.75
590.658	-7.85
590.857	41.3
591.055	117.08
591.253	-32.43
591.452	20.82
591.65	53.59
591.848	-9.9
592.047	20.82
592.245	35.16
592.444	92.5
592.642	4.44
592.84	-28.33
593.038	29.01
593.237	22.87
593.435	-26.28
593.633	139.6
593.832	-59.05
594.03	10.58
594.228	-40.62
594.426	31.06
594.624	35.16
594.823	8.53
595.021	57.68
595.219	41.3
595.417	88.4
595.615	31.06
595.813	65.88
596.012	26.96
596.21	94.55
596.408	86.36
596.606	43.35
596.804	43.35
597.002	-7.85
597.2	53.59
597.398	-3.75
597.596	-22.19
597.794	61.78
597.992	112.98
598.19	-11.95
598.388	-42.67
598.586	6.49
598.784	51.54
598.982	49.49
599.18	164.18
599.378	129.36
599.576	69.97
599.774	0.34
599.972	100.69
600.17	20.82
600.368	14.68
600.565	88.4
600.763	69.97
600.961	125.27
601.159	8.53
601.357	14.68
601.555	57.68
601.752	69.97
601.95	-18.09
602.148	-30.38
602.346	8.53
602.544	51.54
602.741	-126.63
602.939	-67.24
603.137	-32.43
603.334	18.77
603.532	80.21
603.73	-71.34
603.927	86.36
604.125	16.73
604.323	-42.67
604.52	35.16
604.718	18.77
604.916	55.64
605.113	-83.63
605.311	98.64
605.508	86.36
605.706	69.97
605.904	80.21
606.101	-59.05
606.299	47.44
606.496	45.4
606.694	51.54
606.891	82.26
607.089	-75.43
607.286	24.92
607.484	76.12
607.681	35.16
607.879	131.41
608.076	2.39
608.273	0.34
608.471	12.63
608.668	-69.29
608.866	-7.85
609.063	-114.34
609.26	-89.77
609.458	-95.91
609.655	100.69
609.852	-75.43
610.05	-7.85
610.247	33.11
610.444	49.49
610.642	78.16
610.839	-1.71
611.036	29.01
611.233	-61.1
611.431	-54.95
611.628	-20.14
611.825	31.06
612.022	-57
612.22	84.31
612.417	-57
612.614	-22.19
612.811	-57
613.008	86.36
