Data from LSP51_S1_Subt2_14-59-50-834.txt Node
Date: Wed Aug 09 14:59:50 EDT 2023
User: Emmanuel
Spectrometer: USB4A00615
Scans to average: 1
Trigger mode: 1
Integration Time (sec): 4.000000E-3
Electric dark correction enabled: true
Boxcar width: 0
XAxis mode: Wavelengths
Number of Pixels in Spectrum: 3648
>>>>>Begin Spectral Data<<<<<
346.606	96.94
346.818	96.94
347.029	96.94
347.241	144.04
347.452	185
347.664	29.35
347.876	-5.46
348.087	-52.56
348.299	8.87
348.51	72.36
348.722	4.78
348.933	-13.65
349.145	-38.23
349.356	-13.65
349.568	-46.42
349.779	68.27
349.991	-13.65
350.202	0.68
350.414	90.79
350.625	10.92
350.836	49.83
351.048	-50.52
351.259	-40.28
351.471	94.89
351.682	47.79
351.893	72.36
352.105	47.79
352.316	15.02
352.527	31.4
352.739	-60.76
352.95	10.92
353.161	-5.46
353.372	-25.94
353.584	55.98
353.795	88.75
354.006	158.38
354.217	68.27
354.429	2.73
354.64	-54.61
354.851	-17.75
355.062	-3.41
355.274	2.73
355.485	6.83
355.696	-68.95
355.907	-5.46
356.118	-21.85
356.329	45.74
356.54	-73.04
356.752	4.78
356.963	172.71
357.174	33.45
357.385	35.5
357.596	-5.46
357.807	25.26
358.018	109.22
358.229	101.03
358.44	-85.33
358.651	92.84
358.862	53.93
359.073	76.46
359.284	43.69
359.495	47.79
359.706	-11.61
359.917	27.31
360.128	39.59
360.339	6.83
360.55	-1.37
360.761	-62.8
360.972	45.74
361.182	10.92
361.393	45.74
361.604	12.97
361.815	76.46
362.026	98.99
362.237	70.31
362.447	-25.94
362.658	15.02
362.869	68.27
363.08	82.6
363.291	43.69
363.501	0.68
363.712	80.55
363.923	82.6
364.134	-32.08
364.344	21.16
364.555	41.64
364.766	96.94
364.976	35.5
365.187	17.07
365.398	51.88
365.608	19.11
365.819	55.98
366.03	-3.41
366.24	76.46
366.451	-77.14
366.662	72.36
366.872	41.64
367.083	103.08
367.293	55.98
367.504	123.56
367.714	39.59
367.925	60.07
368.135	39.59
368.346	109.22
368.557	-3.41
368.767	51.88
368.977	-23.89
369.188	105.13
369.398	74.41
369.609	141.99
369.819	35.5
370.03	33.45
370.24	109.22
370.451	80.55
370.661	10.92
370.871	150.18
371.082	45.74
371.292	111.27
371.502	10.92
371.713	45.74
371.923	-11.61
372.133	74.41
372.344	21.16
372.554	60.07
372.764	6.83
372.975	41.64
373.185	53.93
373.395	-44.37
373.605	-52.56
373.816	43.69
374.026	37.55
374.236	12.97
374.446	6.83
374.656	27.31
374.867	6.83
375.077	51.88
375.287	64.17
375.497	0.68
375.707	15.02
375.917	31.4
376.127	101.03
376.338	49.83
376.548	10.92
376.758	12.97
376.968	109.22
377.178	72.36
377.388	-36.18
377.598	39.59
377.808	4.78
378.018	182.95
378.228	72.36
378.438	49.83
378.648	35.5
378.858	80.55
379.068	-11.61
379.278	62.12
379.488	-66.9
379.698	-13.65
379.908	12.97
380.118	49.83
380.327	19.11
380.537	-23.89
380.747	-83.28
380.957	12.97
381.167	29.35
381.377	12.97
381.587	90.79
381.796	66.22
382.006	37.55
382.216	27.31
382.426	-60.76
382.636	35.5
382.845	-9.56
383.055	103.08
383.265	133.8
383.475	29.35
383.684	8.87
383.894	113.32
384.104	-85.33
384.313	37.55
384.523	70.31
384.733	49.83
384.942	-19.8
385.152	103.08
385.362	-54.61
385.571	27.31
385.781	49.83
385.991	-46.42
386.2	78.51
386.41	10.92
386.619	90.79
386.829	199.34
387.038	-15.7
387.248	94.89
387.457	84.65
387.667	21.16
387.876	-15.7
388.086	58.03
388.295	27.31
388.505	174.76
388.714	109.22
388.924	-19.8
389.133	76.46
389.343	29.35
389.552	-85.33
389.762	17.07
389.971	58.03
390.18	88.75
390.39	152.23
390.599	94.89
390.808	10.92
391.018	25.26
391.227	72.36
391.436	-21.85
391.646	125.61
391.855	82.6
392.064	-32.08
392.274	129.7
392.483	35.5
392.692	-7.51
392.901	-17.75
393.111	41.64
393.32	-30.04
393.529	86.7
393.738	-9.56
393.947	-3.41
394.157	141.99
394.366	101.03
394.575	53.93
394.784	144.04
394.993	-40.28
395.202	41.64
395.411	2.73
395.62	103.08
395.83	113.32
396.039	-46.42
396.248	-15.7
396.457	60.07
396.666	-15.7
396.875	-13.65
397.084	8.87
397.293	4.78
397.502	76.46
397.711	-50.52
397.92	72.36
398.129	-13.65
398.338	15.02
398.547	41.64
398.756	82.6
398.965	55.98
399.174	31.4
399.382	115.37
399.591	4.78
399.8	-13.65
400.009	-21.85
400.218	10.92
400.427	35.5
400.636	49.83
400.844	51.88
401.053	62.12
401.262	6.83
401.471	94.89
401.68	27.31
401.888	62.12
402.097	92.84
402.306	12.97
402.515	113.32
402.723	-1.37
402.932	43.69
403.141	66.22
403.35	25.26
403.558	-97.62
403.767	86.7
403.976	-21.85
404.184	6.83
404.393	150.18
404.602	10.92
404.81	-38.23
405.019	-66.9
405.227	29.35
405.436	2.73
405.645	19.11
405.853	45.74
406.062	-62.8
406.27	113.32
406.479	4.78
406.687	-21.85
406.896	-87.38
407.104	148.14
407.313	-3.41
407.521	53.93
407.73	82.6
407.938	53.93
408.147	0.68
408.355	25.26
408.563	74.41
408.772	-68.95
408.98	174.76
409.189	47.79
409.397	119.46
409.605	-1.37
409.814	90.79
410.022	25.26
410.23	29.35
410.439	62.12
410.647	21.16
410.855	29.35
411.064	35.5
411.272	17.07
411.48	53.93
411.688	-1.37
411.897	-21.85
412.105	8.87
412.313	141.99
412.521	58.03
412.73	103.08
412.938	76.46
413.146	-38.23
413.354	74.41
413.562	60.07
413.77	90.79
413.979	27.31
414.187	0.68
414.395	15.02
414.603	-38.23
414.811	29.35
415.019	31.4
415.227	113.32
415.435	55.98
415.643	133.8
415.851	-5.46
416.059	8.87
416.267	78.51
416.475	94.89
416.683	15.02
416.891	35.5
417.099	98.99
417.307	109.22
417.515	-34.13
417.723	17.07
417.931	113.32
418.139	197.29
418.347	121.51
418.555	70.31
418.763	92.84
418.971	64.17
419.179	10.92
419.386	-42.32
419.594	68.27
419.802	105.13
420.01	58.03
420.218	21.16
420.426	-48.47
420.633	21.16
420.841	27.31
421.049	-11.61
421.257	12.97
421.464	58.03
421.672	141.99
421.88	27.31
422.088	-27.99
422.295	55.98
422.503	60.07
422.711	107.18
422.918	31.4
423.126	-109.91
423.334	-15.7
423.541	4.78
423.749	6.83
423.956	25.26
424.164	51.88
424.372	141.99
424.579	-120.15
424.787	68.27
424.994	66.22
425.202	2.73
425.409	6.83
425.617	68.27
425.824	-48.47
426.032	74.41
426.239	35.5
426.447	80.55
426.654	-40.28
426.862	129.7
427.069	43.69
427.277	21.16
427.484	88.75
427.692	86.7
427.899	-9.56
428.106	-1.37
428.314	107.18
428.521	115.37
428.728	66.22
428.936	105.13
429.143	45.74
429.351	72.36
429.558	21.16
429.765	23.21
429.972	31.4
430.18	-56.66
430.387	55.98
430.594	17.07
430.801	-19.8
431.009	78.51
431.216	31.4
431.423	33.45
431.63	41.64
431.838	4.78
432.045	101.03
432.252	66.22
432.459	127.66
432.666	51.88
432.873	88.75
433.081	-1.37
433.288	47.79
433.495	-79.19
433.702	6.83
433.909	27.31
434.116	90.79
434.323	70.31
434.53	29.35
434.737	33.45
434.944	72.36
435.151	103.08
435.358	-105.81
435.565	109.22
435.772	-23.89
435.979	60.07
436.186	154.28
436.393	31.4
436.6	88.75
436.807	25.26
437.014	23.21
437.221	-3.41
437.428	43.69
437.635	90.79
437.841	139.94
438.048	64.17
438.255	70.31
438.462	80.55
438.669	109.22
438.876	6.83
439.082	27.31
439.289	17.07
439.496	-3.41
439.703	-9.56
439.91	-42.32
440.116	64.17
440.323	-19.8
440.53	-122.2
440.737	-75.09
440.943	80.55
441.15	-13.65
441.357	-56.66
441.563	2.73
441.77	-19.8
441.977	39.59
442.183	17.07
442.39	64.17
442.597	-73.04
442.803	72.36
443.01	39.59
443.216	-21.85
443.423	94.89
443.63	0.68
443.836	133.8
444.043	-52.56
444.249	12.97
444.456	41.64
444.662	-62.8
444.869	29.35
445.075	103.08
445.282	-11.61
445.488	29.35
445.695	-34.13
445.901	2.73
446.107	55.98
446.314	8.87
446.52	-64.85
446.727	15.02
446.933	35.5
447.139	72.36
447.346	53.93
447.552	-36.18
447.759	-89.43
447.965	60.07
448.171	-7.51
448.378	74.41
448.584	23.21
448.79	51.88
448.996	-56.66
449.203	33.45
449.409	2.73
449.615	76.46
449.821	47.79
450.028	2.73
450.234	60.07
450.44	12.97
450.646	4.78
450.852	-3.41
451.059	-15.7
451.265	15.02
451.471	-30.04
451.677	-9.56
451.883	90.79
452.089	4.78
452.295	2.73
452.502	-3.41
452.708	43.69
452.914	103.08
453.12	66.22
453.326	58.03
453.532	68.27
453.738	-13.65
453.944	137.9
454.15	-5.46
454.356	150.18
454.562	47.79
454.768	-13.65
454.974	49.83
455.18	123.56
455.386	-7.51
455.592	111.27
455.798	113.32
456.003	31.4
456.209	101.03
456.415	35.5
456.621	74.41
456.827	6.83
457.033	60.07
457.239	45.74
457.444	-3.41
457.65	51.88
457.856	-85.33
458.062	115.37
458.268	37.55
458.473	4.78
458.679	-40.28
458.885	86.7
459.091	68.27
459.296	88.75
459.502	33.45
459.708	4.78
459.914	0.68
460.119	37.55
460.325	-122.2
460.531	25.26
460.736	88.75
460.942	2.73
461.147	-1.37
461.353	72.36
461.559	72.36
461.764	-62.8
461.97	15.02
462.175	-19.8
462.381	105.13
462.587	-34.13
462.792	-107.86
462.998	49.83
463.203	123.56
463.409	-81.24
463.614	25.26
463.82	47.79
464.025	41.64
464.231	31.4
464.436	49.83
464.641	31.4
464.847	80.55
465.052	-13.65
465.258	101.03
465.463	-5.46
465.669	53.93
465.874	51.88
466.079	60.07
466.285	113.32
466.49	76.46
466.695	39.59
466.901	64.17
467.106	-122.2
467.311	-54.61
467.516	86.7
467.722	-27.99
467.927	-21.85
468.132	23.21
468.338	88.75
468.543	0.68
468.748	-44.37
468.953	-3.41
469.158	33.45
469.364	-15.7
469.569	103.08
469.774	0.68
469.979	33.45
470.184	74.41
470.389	135.85
470.594	12.97
470.8	8.87
471.005	-38.23
471.21	-27.99
471.415	139.94
471.62	29.35
471.825	101.03
472.03	39.59
472.235	2.73
472.44	82.6
472.645	37.55
472.85	74.41
473.055	107.18
473.26	86.7
473.465	-21.85
473.67	35.5
473.875	70.31
474.08	150.18
474.285	148.14
474.49	-75.09
474.695	-44.37
474.899	0.68
475.104	60.07
475.309	76.46
475.514	94.89
475.719	-91.48
475.924	23.21
476.128	-5.46
476.333	0.68
476.538	31.4
476.743	166.57
476.948	10.92
477.152	10.92
477.357	-36.18
477.562	133.8
477.767	23.21
477.971	90.79
478.176	25.26
478.381	25.26
478.585	72.36
478.79	-15.7
478.995	33.45
479.199	78.51
479.404	-1.37
479.609	2.73
479.813	123.56
480.018	47.79
480.223	80.55
480.427	109.22
480.632	43.69
480.836	160.42
481.041	-13.65
481.245	51.88
481.45	15.02
481.654	68.27
481.859	10.92
482.063	103.08
482.268	121.51
482.472	-25.94
482.677	160.42
482.881	2.73
483.086	-30.04
483.29	105.13
483.495	12.97
483.699	94.89
483.903	-1.37
484.108	84.65
484.312	113.32
484.517	125.61
484.721	55.98
484.925	84.65
485.13	-75.09
485.334	19.11
485.538	-32.08
485.743	-17.75
485.947	2.73
486.151	64.17
486.355	66.22
486.56	55.98
486.764	127.66
486.968	21.16
487.172	-9.56
487.377	60.07
487.581	76.46
487.785	10.92
487.989	74.41
488.193	-40.28
488.397	98.99
488.602	123.56
488.806	-13.65
489.01	27.31
489.214	25.26
489.418	101.03
489.622	-99.67
489.826	62.12
490.03	-17.75
490.234	-52.56
490.438	15.02
490.642	-3.41
490.846	43.69
491.05	-3.41
491.254	-259.41
491.458	178.86
491.662	-77.14
491.866	109.22
492.07	-38.23
492.274	-9.56
492.478	19.11
492.682	174.76
492.886	-3.41
493.09	62.12
493.294	135.85
493.498	35.5
493.701	49.83
493.905	80.55
494.109	72.36
494.313	51.88
494.517	88.75
494.721	166.57
494.924	119.46
495.128	8.87
495.332	-52.56
495.536	68.27
495.739	-62.8
495.943	82.6
496.147	27.31
496.351	78.51
496.554	-9.56
496.758	-52.56
496.962	-48.47
497.165	78.51
497.369	4.78
497.573	55.98
497.776	-9.56
497.98	-5.46
498.184	-48.47
498.387	-38.23
498.591	62.12
498.794	103.08
498.998	-19.8
499.202	105.13
499.405	66.22
499.609	80.55
499.812	-9.56
500.016	29.35
500.219	-34.13
500.423	131.75
500.626	-27.99
500.83	33.45
501.033	-3.41
501.237	62.12
501.44	-1.37
501.643	37.55
501.847	-5.46
502.05	35.5
502.254	-71
502.457	156.33
502.66	-9.56
502.864	45.74
503.067	33.45
503.271	45.74
503.474	55.98
503.677	66.22
503.88	12.97
504.084	25.26
504.287	-19.8
504.49	86.7
504.694	-19.8
504.897	-34.13
505.1	88.75
505.303	10.92
505.507	25.26
505.71	-9.56
505.913	94.89
506.116	21.16
506.319	76.46
506.522	23.21
506.726	72.36
506.929	-60.76
507.132	-50.52
507.335	66.22
507.538	-1.37
507.741	39.59
507.944	-79.19
508.147	55.98
508.35	-15.7
508.553	-15.7
508.756	-5.46
508.959	43.69
509.163	80.55
509.366	103.08
509.569	55.98
509.771	17.07
509.974	70.31
510.177	-5.46
510.38	41.64
510.583	76.46
510.786	-81.24
510.989	78.51
511.192	127.66
511.395	25.26
511.598	10.92
511.801	-3.41
512.004	-77.14
512.206	-79.19
512.409	74.41
512.612	-25.94
512.815	-38.23
513.018	49.83
513.22	164.52
513.423	109.22
513.626	39.59
513.829	-64.85
514.032	29.35
514.234	12.97
514.437	-32.08
514.64	29.35
514.842	-36.18
515.045	62.12
515.248	64.17
515.45	72.36
515.653	-1.37
515.856	31.4
516.058	-128.34
516.261	127.66
516.464	96.94
516.666	53.93
516.869	123.56
517.071	58.03
517.274	129.7
517.477	-48.47
517.679	2.73
517.882	-15.7
518.084	129.7
518.287	-75.09
518.489	96.94
518.692	-19.8
518.894	17.07
519.097	168.62
519.299	19.11
519.501	-50.52
519.704	-19.8
519.906	55.98
520.109	60.07
520.311	15.02
520.514	90.79
520.716	19.11
520.918	-46.42
521.121	29.35
521.323	-27.99
521.525	127.66
521.728	70.31
521.93	135.85
522.132	90.79
522.335	6.83
522.537	62.12
522.739	45.74
522.941	6.83
523.144	-15.7
523.346	47.79
523.548	55.98
523.75	72.36
523.952	37.55
524.155	96.94
524.357	43.69
524.559	-38.23
524.761	-95.57
524.963	15.02
525.165	-38.23
525.368	15.02
525.57	41.64
525.772	25.26
525.974	-44.37
526.176	45.74
526.378	10.92
526.58	86.7
526.782	17.07
526.984	105.13
527.186	-1.37
527.388	78.51
527.59	86.7
527.792	27.31
527.994	76.46
528.196	49.83
528.398	53.93
528.6	12.97
528.802	82.6
529.004	8.87
529.206	-11.61
529.408	84.65
529.609	49.83
529.811	31.4
530.013	23.21
530.215	21.16
530.417	80.55
530.619	41.64
530.821	139.94
531.022	41.64
531.224	-34.13
531.426	64.17
531.628	-7.51
531.829	-58.71
532.031	86.7
532.233	8.87
532.435	-38.23
532.636	0.68
532.838	115.37
533.04	37.55
533.241	8.87
533.443	78.51
533.645	74.41
533.846	64.17
534.048	-46.42
534.25	74.41
534.451	62.12
534.653	-23.89
534.855	123.56
535.056	-36.18
535.258	45.74
535.459	98.99
535.661	96.94
535.862	76.46
536.064	80.55
536.265	51.88
536.467	43.69
536.668	-56.66
536.87	64.17
537.071	-3.41
537.273	49.83
537.474	-46.42
537.676	27.31
537.877	96.94
538.078	29.35
538.28	-21.85
538.481	-95.57
538.683	98.99
538.884	74.41
539.085	111.27
539.287	-46.42
539.488	115.37
539.689	60.07
539.891	101.03
540.092	8.87
540.293	92.84
540.495	17.07
540.696	21.16
540.897	-36.18
541.098	111.27
541.3	55.98
541.501	47.79
541.702	39.59
541.903	-101.72
542.104	80.55
542.306	19.11
542.507	21.16
542.708	84.65
542.909	8.87
543.11	53.93
543.311	51.88
543.512	51.88
543.713	45.74
543.915	6.83
544.116	148.14
544.317	146.09
544.518	113.32
544.719	-34.13
544.92	-9.56
545.121	15.02
545.322	-30.04
545.523	-7.51
545.724	160.42
545.925	78.51
546.126	4.78
546.327	10.92
546.528	21.16
546.729	82.6
546.929	-44.37
547.13	-87.38
547.331	62.12
547.532	23.21
547.733	119.46
547.934	76.46
548.135	39.59
548.336	109.22
548.536	43.69
548.737	-21.85
548.938	39.59
549.139	51.88
549.34	8.87
549.54	-19.8
549.741	86.7
549.942	78.51
550.143	-337.23
550.343	84.65
550.544	60.07
550.745	-15.7
550.945	51.88
551.146	0.68
551.347	-32.08
551.547	15.02
551.748	-25.94
551.949	-50.52
552.149	78.51
552.35	-44.37
552.551	86.7
552.751	39.59
552.952	27.31
553.152	41.64
553.353	-81.24
553.553	-23.89
553.754	33.45
553.954	88.75
554.155	27.31
554.356	64.17
554.556	88.75
554.756	-40.28
554.957	43.69
555.157	113.32
555.358	133.8
555.558	43.69
555.759	51.88
555.959	-48.47
556.159	17.07
556.36	41.64
556.56	55.98
556.761	-27.99
556.961	51.88
557.161	27.31
557.362	154.28
557.562	25.26
557.762	15.02
557.963	-27.99
558.163	27.31
558.363	43.69
558.563	53.93
558.764	-13.65
558.964	51.88
559.164	-7.51
559.364	201.38
559.565	84.65
559.765	39.59
559.965	35.5
560.165	15.02
560.365	-15.7
560.565	51.88
560.766	-46.42
560.966	90.79
561.166	-48.47
561.366	31.4
561.566	113.32
561.766	17.07
561.966	31.4
562.166	113.32
562.366	53.93
562.566	96.94
562.766	101.03
562.966	-36.18
563.166	-25.94
563.366	51.88
563.566	47.79
563.766	62.12
563.966	90.79
564.166	2.73
564.366	94.89
564.566	185
564.766	117.42
564.966	62.12
565.166	62.12
565.366	15.02
565.565	29.35
565.765	49.83
565.965	23.21
566.165	176.81
566.365	76.46
566.565	49.83
566.764	51.88
566.964	76.46
567.164	23.21
567.364	72.36
567.564	21.16
567.763	55.98
567.963	66.22
568.163	70.31
568.362	101.03
568.562	45.74
568.762	33.45
568.961	21.16
569.161	76.46
569.361	-36.18
569.56	84.65
569.76	2.73
569.96	80.55
570.159	-21.85
570.359	-48.47
570.558	74.41
570.758	72.36
570.958	-64.85
571.157	115.37
571.357	127.66
571.556	-25.94
571.756	-38.23
571.955	92.84
572.155	-36.18
572.354	-1.37
572.554	-71
572.753	43.69
572.953	78.51
573.152	72.36
573.351	-50.52
573.551	12.97
573.75	-11.61
573.95	-3.41
574.149	-7.51
574.348	-58.71
574.548	25.26
574.747	-13.65
574.946	2.73
575.146	-44.37
575.345	-50.52
575.544	-56.66
575.744	-83.28
575.943	-50.52
576.142	127.66
576.342	51.88
576.541	111.27
576.74	64.17
576.939	158.38
577.138	144.04
577.338	111.27
577.537	-124.24
577.736	-40.28
577.935	72.36
578.134	51.88
578.333	-7.51
578.533	-3.41
578.732	53.93
578.931	4.78
579.13	23.21
579.329	82.6
579.528	-44.37
579.727	33.45
579.926	33.45
580.125	-5.46
580.324	55.98
580.523	23.21
580.722	-44.37
580.921	-25.94
581.12	-23.89
581.319	74.41
581.518	135.85
581.717	39.59
581.916	-3.41
582.115	72.36
582.314	8.87
582.513	41.64
582.712	25.26
582.911	72.36
583.109	-44.37
583.308	45.74
583.507	-13.65
583.706	60.07
583.905	47.79
584.104	55.98
584.302	74.41
584.501	51.88
584.7	-34.13
584.899	-56.66
585.098	66.22
585.296	10.92
585.495	-3.41
585.694	43.69
585.892	92.84
586.091	37.55
586.29	-7.51
586.488	-11.61
586.687	41.64
586.886	78.51
587.084	-23.89
587.283	62.12
587.482	-81.24
587.68	21.16
587.879	58.03
588.077	12.97
588.276	-25.94
588.475	-50.52
588.673	33.45
588.872	29.35
589.07	25.26
589.269	86.7
589.467	119.46
589.666	-42.32
589.864	158.38
590.063	-40.28
590.261	66.22
590.46	29.35
590.658	-17.75
590.857	86.7
591.055	90.79
591.253	-38.23
591.452	-48.47
591.65	86.7
591.848	60.07
592.047	33.45
592.245	23.21
592.444	53.93
592.642	-23.89
592.84	4.78
593.038	68.27
593.237	-91.48
593.435	10.92
593.633	119.46
593.832	-126.29
594.03	0.68
594.228	-27.99
594.426	-9.56
594.624	92.84
594.823	-38.23
595.021	39.59
595.219	-27.99
595.417	80.55
595.615	25.26
595.813	29.35
596.012	2.73
596.21	72.36
596.408	-5.46
596.606	-23.89
596.804	72.36
597.002	-7.51
597.2	31.4
597.398	17.07
597.596	117.42
597.794	68.27
597.992	78.51
598.19	37.55
598.388	119.46
598.586	49.83
598.784	43.69
598.982	64.17
599.18	164.52
599.378	92.84
599.576	58.03
599.774	60.07
599.972	25.26
600.17	55.98
600.368	66.22
600.565	25.26
600.763	68.27
600.961	64.17
601.159	66.22
601.357	-9.56
601.555	84.65
601.752	82.6
601.95	19.11
602.148	0.68
602.346	-11.61
602.544	195.24
602.741	-40.28
602.939	-17.75
603.137	-48.47
603.334	-50.52
603.532	23.21
603.73	4.78
603.927	92.84
604.125	70.31
604.323	-107.86
604.52	41.64
604.718	41.64
604.916	37.55
605.113	-52.56
605.311	58.03
605.508	39.59
605.706	115.37
605.904	109.22
606.101	-75.09
606.299	55.98
606.496	2.73
606.694	4.78
606.891	47.79
607.089	-11.61
607.286	-64.85
607.484	62.12
607.681	4.78
607.879	144.04
608.076	-56.66
608.273	33.45
608.471	68.27
608.668	-50.52
608.866	-23.89
609.063	-85.33
609.26	-120.15
609.458	-130.39
609.655	105.13
609.852	-48.47
610.05	58.03
610.247	29.35
610.444	41.64
610.642	25.26
610.839	-17.75
611.036	33.45
611.233	72.36
611.431	23.21
611.628	29.35
611.825	-1.37
612.022	-36.18
612.22	43.69
612.417	8.87
612.614	-46.42
612.811	64.17
