Data from LSP57_S7_Subt2_15-40-38-627.txt Node
Date: Wed Aug 09 15:40:38 EDT 2023
User: Emmanuel
Spectrometer: USB4A00615
Scans to average: 1
Trigger mode: 1
Integration Time (sec): 1.000000E-2
Electric dark correction enabled: true
Boxcar width: 0
XAxis mode: Wavelengths
Number of Pixels in Spectrum: 3648
>>>>>Begin Spectral Data<<<<<
346.606	-95.06
346.818	-95.06
347.029	-95.06
347.241	17.58
347.452	154.79
347.664	-37.72
347.876	89.26
348.087	3.24
348.299	-23.38
348.51	23.72
348.722	-64.34
348.933	-56.15
349.145	44.2
349.356	9.39
349.568	-0.85
349.779	64.68
349.991	-52.05
350.202	11.43
350.414	103.59
350.625	9.39
350.836	-29.52
351.048	44.2
351.259	87.21
351.471	9.39
351.682	68.78
351.893	44.2
352.105	95.4
352.316	5.29
352.527	11.43
352.739	-68.44
352.95	29.87
353.161	-56.15
353.372	-25.43
353.584	31.91
353.795	99.5
354.006	44.2
354.217	-11.09
354.429	-9.05
354.64	-0.85
354.851	38.06
355.062	-90.96
355.274	25.77
355.485	9.39
355.696	-45.91
355.907	-99.16
356.118	-13.14
356.329	152.74
356.54	56.49
356.752	-64.34
356.963	134.31
357.174	50.35
357.385	15.53
357.596	23.72
357.807	21.67
358.018	31.91
358.229	113.83
358.44	-66.39
358.651	72.87
358.862	13.48
359.073	9.39
359.284	11.43
359.495	33.96
359.706	-33.62
359.917	-23.38
360.128	-0.85
360.339	-25.43
360.55	25.77
360.761	21.67
360.972	46.25
361.182	5.29
361.393	50.35
361.604	91.31
361.815	25.77
362.026	74.92
362.237	76.97
362.447	-35.67
362.658	21.67
362.869	74.92
363.08	36.01
363.291	-45.91
363.501	105.64
363.712	36.01
363.923	122.02
364.134	-80.72
364.344	5.29
364.555	-13.14
364.766	83.11
364.976	46.25
365.187	38.06
365.398	60.59
365.608	29.87
365.819	-31.57
366.03	23.72
366.24	99.5
366.451	-111.44
366.662	107.69
366.872	40.11
367.083	152.74
367.293	40.11
367.504	93.35
367.714	68.78
367.925	44.2
368.135	17.58
368.346	91.31
368.557	60.59
368.767	58.54
368.977	21.67
369.188	33.96
369.398	97.45
369.609	48.3
369.819	-2.9
370.03	-0.85
370.24	115.88
370.451	128.17
370.661	31.91
370.871	193.7
371.082	3.24
371.292	162.98
371.502	56.49
371.713	64.68
371.923	23.72
372.133	111.78
372.344	79.02
372.554	97.45
372.764	44.2
372.975	36.01
373.185	62.63
373.395	-4.95
373.605	-11.09
373.816	40.11
374.026	42.15
374.236	-31.57
374.446	25.77
374.656	-39.76
374.867	-4.95
375.077	-0.85
375.287	44.2
375.497	-17.24
375.707	13.48
375.917	-23.38
376.127	17.58
376.338	7.34
376.548	9.39
376.758	-4.95
376.968	85.16
377.178	-2.9
377.388	-23.38
377.598	-45.91
377.808	-56.15
378.018	179.37
378.228	-52.05
378.438	36.01
378.648	13.48
378.858	60.59
379.068	-25.43
379.278	70.83
379.488	44.2
379.698	-9.05
379.908	7.34
380.118	21.67
380.327	40.11
380.537	-60.24
380.747	-62.29
380.957	13.48
381.167	3.24
381.377	91.31
381.587	76.97
381.796	119.98
382.006	7.34
382.216	33.96
382.426	38.06
382.636	17.58
382.845	23.72
383.055	64.68
383.265	66.73
383.475	27.82
383.684	29.87
383.894	62.63
384.104	-64.34
384.313	21.67
384.523	103.59
384.733	76.97
384.942	9.39
385.152	-29.52
385.362	-4.95
385.571	72.87
385.781	-15.19
385.991	-25.43
386.2	64.68
386.41	-37.72
386.619	109.74
386.829	76.97
387.038	-76.63
387.248	58.54
387.457	81.07
387.667	17.58
387.876	46.25
388.086	36.01
388.295	-0.85
388.505	97.45
388.714	79.02
388.924	-45.91
389.133	56.49
389.343	52.39
389.552	-4.95
389.762	38.06
389.971	99.5
390.18	-47.96
390.39	154.79
390.599	142.5
390.808	44.2
391.018	46.25
391.227	87.21
391.436	17.58
391.646	148.65
391.855	19.63
392.064	-129.88
392.274	148.65
392.483	70.83
392.692	-17.24
392.901	-54.1
393.111	-21.33
393.32	46.25
393.529	87.21
393.738	95.4
393.947	-41.81
394.157	132.26
394.366	85.16
394.575	54.44
394.784	-23.38
394.993	66.73
395.202	60.59
395.411	-62.29
395.62	122.02
395.83	38.06
396.039	-23.38
396.248	-68.44
396.457	40.11
396.666	-9.05
396.875	-0.85
397.084	-4.95
397.293	81.07
397.502	-68.44
397.711	-2.9
397.92	83.11
398.129	-58.2
398.338	70.83
398.547	70.83
398.756	33.96
398.965	130.22
399.174	33.96
399.382	79.02
399.591	33.96
399.8	79.02
400.009	19.63
400.218	126.12
400.427	-74.58
400.636	52.39
400.844	60.59
401.053	101.55
401.262	-35.67
401.471	50.35
401.68	-76.63
401.888	158.89
402.097	117.93
402.306	5.29
402.515	25.77
402.723	117.93
402.932	-15.19
403.141	-0.85
403.35	60.59
403.558	-52.05
403.767	128.17
403.976	-17.24
404.184	15.53
404.393	46.25
404.602	-64.34
404.81	-25.43
405.019	-0.85
405.227	33.96
405.436	15.53
405.645	79.02
405.853	44.2
406.062	27.82
406.27	130.22
406.479	50.35
406.687	9.39
406.896	-119.64
407.104	140.46
407.313	17.58
407.521	9.39
407.73	52.39
407.938	79.02
408.147	54.44
408.355	23.72
408.563	95.4
408.772	-72.53
408.98	144.55
409.189	144.55
409.397	119.98
409.605	29.87
409.814	5.29
410.022	25.77
410.23	50.35
410.439	122.02
410.647	79.02
410.855	-101.2
411.064	56.49
411.272	27.82
411.48	124.07
411.688	29.87
411.897	9.39
412.105	-0.85
412.313	79.02
412.521	-9.05
412.73	48.3
412.938	74.92
413.146	-11.09
413.354	107.69
413.562	17.58
413.77	36.01
413.979	42.15
414.187	13.48
414.395	-54.1
414.603	-11.09
414.811	-31.57
415.019	52.39
415.227	-56.15
415.435	62.63
415.643	-27.48
415.851	-15.19
416.059	-58.2
416.267	64.68
416.475	31.91
416.683	-15.19
416.891	15.53
417.099	38.06
417.307	76.97
417.515	19.63
417.723	91.31
417.931	115.88
418.139	158.89
418.347	89.26
418.555	21.67
418.763	23.72
418.971	91.31
419.179	-58.2
419.386	-17.24
419.594	13.48
419.802	7.34
420.01	-27.48
420.218	101.55
420.426	19.63
420.633	44.2
420.841	68.78
421.049	-19.29
421.257	19.63
421.464	107.69
421.672	58.54
421.88	29.87
422.088	46.25
422.295	52.39
422.503	70.83
422.711	91.31
422.918	9.39
423.126	-52.05
423.334	-31.57
423.541	103.59
423.749	-31.57
423.956	9.39
424.164	9.39
424.372	134.31
424.579	-109.4
424.787	27.82
424.994	81.07
425.202	19.63
425.409	29.87
425.617	-19.29
425.824	-58.2
426.032	25.77
426.239	50.35
426.447	5.29
426.654	-41.81
426.862	23.72
427.069	-39.76
427.277	126.12
427.484	79.02
427.692	83.11
427.899	79.02
428.106	-7
428.314	72.87
428.521	42.15
428.728	42.15
428.936	136.36
429.143	38.06
429.351	99.5
429.558	-4.95
429.765	3.24
429.972	60.59
430.18	46.25
430.387	62.63
430.594	-58.2
430.801	40.11
431.009	76.97
431.216	-43.86
431.423	15.53
431.63	-33.62
431.838	54.44
432.045	48.3
432.252	52.39
432.459	62.63
432.666	5.29
432.873	85.16
433.081	56.49
433.288	52.39
433.495	-84.82
433.702	5.29
433.909	11.43
434.116	95.4
434.323	23.72
434.53	5.29
434.737	36.01
434.944	124.07
435.151	-17.24
435.358	-82.77
435.565	66.73
435.772	-41.81
435.979	56.49
436.186	169.13
436.393	81.07
436.6	17.58
436.807	17.58
437.014	85.16
437.221	23.72
437.428	136.36
437.635	27.82
437.841	93.35
438.048	27.82
438.255	-4.95
438.462	21.67
438.669	81.07
438.876	23.72
439.082	-2.9
439.289	31.91
439.496	-29.52
439.703	-56.15
439.91	-45.91
440.116	64.68
440.323	74.92
440.53	-29.52
440.737	-4.95
440.943	52.39
441.15	-7
441.357	-115.54
441.563	3.24
441.77	36.01
441.977	99.5
442.183	-54.1
442.39	-72.53
442.597	-62.29
442.803	50.35
443.01	42.15
443.216	-80.72
443.423	156.84
443.63	-31.57
443.836	79.02
444.043	33.96
444.249	79.02
444.456	11.43
444.662	5.29
444.869	107.69
445.075	31.91
445.282	93.35
445.488	33.96
445.695	-19.29
445.901	-70.48
446.107	62.63
446.314	31.91
446.52	-19.29
446.727	64.68
446.933	21.67
447.139	50.35
447.346	111.78
447.552	-17.24
447.759	-82.77
447.965	-13.14
448.171	38.06
448.378	-33.62
448.584	140.46
448.79	62.63
448.996	-97.11
449.203	93.35
449.409	-29.52
449.615	54.44
449.821	111.78
450.028	-0.85
450.234	7.34
450.44	7.34
450.646	-17.24
450.852	27.82
451.059	27.82
451.265	58.54
451.471	-72.53
451.677	44.2
451.883	76.97
452.089	7.34
452.295	79.02
452.502	54.44
452.708	50.35
452.914	56.49
453.12	111.78
453.326	66.73
453.532	29.87
453.738	1.19
453.944	74.92
454.15	-47.96
454.356	83.11
454.562	5.29
454.768	-2.9
454.974	60.59
455.18	138.41
455.386	36.01
455.592	109.74
455.798	17.58
456.003	36.01
456.209	60.59
456.415	-35.67
456.621	42.15
456.827	99.5
457.033	66.73
457.239	54.44
457.444	56.49
457.65	66.73
457.856	-54.1
458.062	105.64
458.268	7.34
458.473	-17.24
458.679	3.24
458.885	113.83
459.091	81.07
459.296	27.82
459.502	-17.24
459.708	46.25
459.914	48.3
460.119	-9.05
460.325	-50
460.531	42.15
460.736	64.68
460.942	42.15
461.147	58.54
461.353	91.31
461.559	79.02
461.764	-31.57
461.97	74.92
462.175	15.53
462.381	64.68
462.587	1.19
462.792	-80.72
462.998	93.35
463.203	50.35
463.409	1.19
463.614	187.56
463.82	19.63
464.025	74.92
464.231	5.29
464.436	11.43
464.641	21.67
464.847	62.63
465.052	46.25
465.258	29.87
465.463	-11.09
465.669	19.63
465.874	7.34
466.079	27.82
466.285	187.56
466.49	122.02
466.695	93.35
466.901	11.43
467.106	-70.48
467.311	-119.64
467.516	-31.57
467.722	-15.19
467.927	23.72
468.132	38.06
468.338	-45.91
468.543	21.67
468.748	-54.1
468.953	25.77
469.158	1.19
469.364	-2.9
469.569	19.63
469.774	-7
469.979	115.88
470.184	83.11
470.389	81.07
470.594	66.73
470.8	38.06
471.005	29.87
471.21	19.63
471.415	-15.19
471.62	54.44
471.825	111.78
472.03	-7
472.235	-29.52
472.44	33.96
472.645	81.07
472.85	50.35
473.055	29.87
473.26	66.73
473.465	-80.72
473.67	-13.14
473.875	7.34
474.08	23.72
474.285	66.73
474.49	-25.43
474.695	99.5
474.899	42.15
475.104	-72.53
475.309	64.68
475.514	60.59
475.719	-66.39
475.924	136.36
476.128	56.49
476.333	-52.05
476.538	33.96
476.743	222.38
476.948	3.24
477.152	66.73
477.357	-62.29
477.562	201.9
477.767	101.55
477.971	15.53
478.176	3.24
478.381	-101.2
478.585	91.31
478.79	31.91
478.995	21.67
479.199	3.24
479.404	-29.52
479.609	42.15
479.813	134.31
480.018	9.39
480.223	79.02
480.427	36.01
480.632	19.63
480.836	48.3
481.041	128.17
481.245	70.83
481.45	19.63
481.654	107.69
481.859	-17.24
482.063	54.44
482.268	91.31
482.472	-58.2
482.677	148.65
482.881	25.77
483.086	-95.06
483.29	11.43
483.495	79.02
483.699	117.93
483.903	81.07
484.108	76.97
484.312	87.21
484.517	66.73
484.721	27.82
484.925	-68.44
485.13	-66.39
485.334	107.69
485.538	-52.05
485.743	87.21
485.947	83.11
486.151	23.72
486.355	72.87
486.56	21.67
486.764	56.49
486.968	-2.9
487.172	-56.15
487.377	40.11
487.581	13.48
487.785	-2.9
487.989	117.93
488.193	-80.72
488.397	-17.24
488.602	105.64
488.806	-27.48
489.01	79.02
489.214	52.39
489.418	113.83
489.622	9.39
489.826	36.01
490.03	15.53
490.234	-29.52
490.438	1.19
490.642	31.91
490.846	-23.38
491.05	-9.05
491.254	-244.56
491.458	48.3
491.662	25.77
491.866	119.98
492.07	-33.62
492.274	68.78
492.478	25.77
492.682	205.99
492.886	36.01
493.09	9.39
493.294	152.74
493.498	103.59
493.701	-0.85
493.905	160.94
494.109	-9.05
494.313	-17.24
494.517	64.68
494.721	91.31
494.924	52.39
495.128	46.25
495.332	54.44
495.536	-7
495.739	-54.1
495.943	54.44
496.147	81.07
496.351	136.36
496.554	-37.72
496.758	-4.95
496.962	107.69
497.165	-60.24
497.369	-21.33
497.573	-25.43
497.776	74.92
497.98	48.3
498.184	-76.63
498.387	-103.25
498.591	46.25
498.794	89.26
498.998	72.87
499.202	70.83
499.405	58.54
499.609	115.88
499.812	1.19
500.016	-11.09
500.219	36.01
500.423	7.34
500.626	-64.34
500.83	31.91
501.033	36.01
501.237	9.39
501.44	5.29
501.643	36.01
501.847	-45.91
502.05	81.07
502.254	25.77
502.457	85.16
502.66	31.91
502.864	105.64
503.067	91.31
503.271	85.16
503.474	36.01
503.677	64.68
503.88	-4.95
504.084	128.17
504.287	-84.82
504.49	42.15
504.694	-56.15
504.897	-19.29
505.1	81.07
505.303	62.63
505.507	-29.52
505.71	19.63
505.913	113.83
506.116	72.87
506.319	31.91
506.522	130.22
506.726	44.2
506.929	-72.53
507.132	-9.05
507.335	42.15
507.538	-47.96
507.741	93.35
507.944	-4.95
508.147	27.82
508.35	-27.48
508.553	54.44
508.756	11.43
508.959	-52.05
509.163	13.48
509.366	70.83
509.569	81.07
509.771	-21.33
509.974	36.01
510.177	17.58
510.38	38.06
510.583	87.21
510.786	-39.76
510.989	58.54
511.192	95.4
511.395	62.63
511.598	27.82
511.801	79.02
512.004	-88.92
512.206	-93.01
512.409	1.19
512.612	23.72
512.815	21.67
513.018	13.48
513.22	50.35
513.423	128.17
513.626	27.82
513.829	-25.43
514.032	33.96
514.234	27.82
514.437	29.87
514.64	31.91
514.842	25.77
515.045	27.82
515.248	-17.24
515.45	33.96
515.653	-29.52
515.856	40.11
516.058	-62.29
516.261	93.35
516.464	-41.81
516.666	126.12
516.869	91.31
517.071	42.15
517.274	111.78
517.477	-35.67
517.679	33.96
517.882	-0.85
518.084	29.87
518.287	-11.09
518.489	117.93
518.692	38.06
518.894	48.3
519.097	66.73
519.299	5.29
519.501	23.72
519.704	1.19
519.906	95.4
520.109	95.4
520.311	-37.72
520.514	95.4
520.716	38.06
520.918	-45.91
521.121	101.55
521.323	-2.9
521.525	23.72
521.728	-19.29
521.93	-35.67
522.132	25.77
522.335	9.39
522.537	97.45
522.739	56.49
522.941	-37.72
523.144	9.39
523.346	56.49
523.548	97.45
523.75	-15.19
523.952	11.43
524.155	93.35
524.357	5.29
524.559	-41.81
524.761	-43.86
524.963	-7
525.165	7.34
525.368	36.01
525.57	119.98
525.772	3.24
525.974	-23.38
526.176	13.48
526.378	79.02
526.58	76.97
526.782	48.3
526.984	13.48
527.186	-35.67
527.388	79.02
527.59	-47.96
527.792	58.54
527.994	93.35
528.196	36.01
528.398	3.24
528.6	13.48
528.802	101.55
529.004	60.59
529.206	70.83
529.408	50.35
529.609	62.63
529.811	38.06
530.013	64.68
530.215	-17.24
530.417	103.59
530.619	27.82
530.821	107.69
531.022	15.53
531.224	38.06
531.426	97.45
531.628	79.02
531.829	-70.48
532.031	85.16
532.233	7.34
532.435	-21.33
532.636	-4.95
532.838	171.18
533.04	-39.76
533.241	-47.96
533.443	42.15
533.645	27.82
533.846	52.39
534.048	-19.29
534.25	58.54
534.451	113.83
534.653	-50
534.855	52.39
535.056	17.58
535.258	44.2
535.459	87.21
535.661	83.11
535.862	48.3
536.064	23.72
536.265	87.21
536.467	29.87
536.668	-58.2
536.87	23.72
537.071	-78.68
537.273	79.02
537.474	50.35
537.676	70.83
537.877	17.58
538.078	36.01
538.28	-33.62
538.481	36.01
538.683	-31.57
538.884	33.96
539.085	13.48
539.287	-0.85
539.488	128.17
539.689	-33.62
539.891	74.92
540.092	-7
540.293	50.35
540.495	91.31
540.696	9.39
540.897	-54.1
541.098	52.39
541.3	13.48
541.501	15.53
541.702	54.44
541.903	-11.09
542.104	58.54
542.306	42.15
542.507	36.01
542.708	60.59
542.909	36.01
543.11	54.44
543.311	17.58
543.512	17.58
543.713	7.34
543.915	-74.58
544.116	60.59
544.317	99.5
544.518	136.36
544.719	17.58
544.92	64.68
545.121	9.39
545.322	-45.91
545.523	-144.21
545.724	52.39
545.925	126.12
546.126	27.82
546.327	46.25
546.528	54.44
546.729	42.15
546.929	-25.43
547.13	-56.15
547.331	21.67
547.532	-33.62
547.733	150.7
547.934	21.67
548.135	54.44
548.336	124.07
548.536	101.55
548.737	-56.15
548.938	29.87
549.139	-35.67
549.34	-19.29
549.54	74.92
549.741	13.48
549.942	44.2
550.143	-281.43
550.343	111.78
550.544	87.21
550.745	1.19
550.945	36.01
551.146	11.43
551.347	-80.72
551.547	-33.62
551.748	23.72
551.949	-0.85
552.149	44.2
552.35	-29.52
552.551	85.16
552.751	46.25
552.952	-39.76
553.152	113.83
553.353	-17.24
553.553	-31.57
553.754	56.49
553.954	9.39
554.155	76.97
554.356	25.77
554.556	33.96
554.756	-31.57
554.957	58.54
555.157	27.82
555.358	113.83
555.558	52.39
555.759	91.31
555.959	64.68
556.159	-35.67
556.36	48.3
556.56	146.6
556.761	-29.52
556.961	68.78
557.161	-115.54
557.362	162.98
557.562	-66.39
557.762	33.96
557.963	-54.1
558.163	-31.57
558.363	-35.67
558.563	74.92
558.764	81.07
558.964	33.96
559.164	13.48
559.364	122.02
559.565	-19.29
559.765	11.43
559.965	103.59
560.165	-31.57
560.365	-19.29
560.565	-64.34
560.766	-7
560.966	38.06
561.166	-68.44
561.366	15.53
561.566	46.25
561.766	-58.2
561.966	33.96
562.166	210.09
562.366	103.59
562.566	40.11
562.766	46.25
562.966	-50
563.166	-52.05
563.366	76.97
563.566	56.49
563.766	83.11
563.966	132.26
564.166	-23.38
564.366	15.53
564.566	103.59
564.766	99.5
564.966	-19.29
565.166	60.59
565.366	-2.9
565.565	-25.43
565.765	25.77
565.965	9.39
566.165	48.3
566.365	44.2
566.565	42.15
566.764	81.07
566.964	-47.96
567.164	-41.81
567.364	-33.62
567.564	76.97
567.763	74.92
567.963	19.63
568.163	13.48
568.362	48.3
568.562	19.63
568.762	62.63
568.961	62.63
569.161	103.59
569.361	-23.38
569.56	-31.57
569.76	-76.63
569.96	54.44
570.159	-27.48
570.359	-72.53
570.558	31.91
570.758	72.87
570.958	-13.14
571.157	58.54
571.357	154.79
571.556	33.96
571.756	85.16
571.955	-25.43
572.155	-27.48
572.354	-17.24
572.554	50.35
572.753	87.21
572.953	56.49
573.152	107.69
573.351	-97.11
573.551	46.25
573.75	-2.9
573.95	38.06
574.149	9.39
574.348	-47.96
574.548	76.97
574.747	5.29
574.946	21.67
575.146	-33.62
575.345	64.68
575.544	-93.01
575.744	1.19
575.943	-93.01
576.142	138.41
576.342	-9.05
576.541	111.78
576.74	56.49
576.939	50.35
577.138	138.41
577.338	122.02
577.537	-154.45
577.736	-60.24
577.935	13.48
578.134	25.77
578.333	5.29
578.533	38.06
578.732	3.24
578.931	-31.57
579.13	40.11
579.329	50.35
579.528	-68.44
579.727	36.01
579.926	-72.53
580.125	111.78
580.324	97.45
580.523	175.27
580.722	-41.81
580.921	70.83
581.12	9.39
581.319	23.72
581.518	91.31
581.717	40.11
581.916	40.11
582.115	54.44
582.314	66.73
582.513	15.53
582.712	-66.39
582.911	130.22
583.109	-60.24
583.308	-19.29
583.507	56.49
583.706	58.54
583.905	-4.95
584.104	109.74
584.302	-17.24
584.501	42.15
584.7	-54.1
584.899	-66.39
585.098	79.02
585.296	31.91
585.495	40.11
585.694	21.67
585.892	72.87
586.091	-7
586.29	13.48
586.488	-43.86
586.687	54.44
586.886	25.77
587.084	54.44
587.283	-50
587.482	-15.19
587.68	15.53
587.879	70.83
588.077	-50
588.276	83.11
588.475	40.11
588.673	66.73
588.872	-2.9
589.07	85.16
589.269	85.16
589.467	136.36
589.666	-21.33
589.864	58.54
590.063	31.91
590.261	3.24
590.46	31.91
590.658	60.59
590.857	-19.29
591.055	25.77
591.253	-56.15
591.452	-58.2
591.65	27.82
591.848	101.55
592.047	79.02
592.245	64.68
592.444	46.25
592.642	-11.09
592.84	40.11
593.038	29.87
593.237	-33.62
593.435	52.39
593.633	162.98
593.832	-60.24
594.03	93.35
594.228	1.19
594.426	56.49
594.624	95.4
594.823	33.96
595.021	54.44
595.219	48.3
595.417	-7
595.615	9.39
595.813	23.72
596.012	60.59
596.21	48.3
596.408	-21.33
596.606	60.59
596.804	81.07
597.002	-45.91
597.2	19.63
597.398	-43.86
597.596	44.2
597.794	74.92
597.992	83.11
598.19	-19.29
598.388	42.15
598.586	27.82
598.784	-0.85
598.982	25.77
599.18	144.55
599.378	109.74
599.576	60.59
599.774	-29.52
599.972	33.96
600.17	-4.95
600.368	25.77
600.565	54.44
600.763	-2.9
600.961	56.49
601.159	23.72
601.357	44.2
601.555	130.22
601.752	56.49
601.95	-25.43
602.148	60.59
602.346	-15.19
602.544	76.97
602.741	-82.77
602.939	7.34
603.137	-19.29
603.334	-111.44
603.532	36.01
603.73	-25.43
603.927	85.16
604.125	9.39
604.323	-164.69
604.52	-45.91
604.718	-17.24
604.916	31.91
605.113	-115.54
605.311	56.49
605.508	56.49
605.706	72.87
605.904	-0.85
606.101	-70.48
606.299	5.29
606.496	66.73
606.694	42.15
606.891	-11.09
607.089	-17.24
607.286	-41.81
607.484	42.15
607.681	-60.24
607.879	11.43
608.076	5.29
608.273	36.01
608.471	81.07
608.668	-43.86
608.866	-39.76
609.063	-113.49
609.26	-146.26
609.458	-9.05
609.655	33.96
609.852	-35.67
610.05	-9.05
610.247	38.06
610.444	52.39
610.642	23.72
610.839	-54.1
611.036	19.63
611.233	56.49
611.431	15.53
611.628	-60.24
611.825	-54.1
612.022	-78.68
612.22	54.44
612.417	-37.72
612.614	9.39
612.811	101.55
