Data from LSP52_S2_Subt2_15-18-30-802.txt Node
Date: Wed Aug 09 15:18:30 EDT 2023
User: Emmanuel
Spectrometer: USB4A00615
Scans to average: 1
Trigger mode: 1
Integration Time (sec): 4.000000E-3
Electric dark correction enabled: true
Boxcar width: 0
XAxis mode: Wavelengths
Number of Pixels in Spectrum: 3648
>>>>>Begin Spectral Data<<<<<
346.606	-51.2
346.818	-51.2
347.029	-51.2
347.241	133.12
347.452	172.03
347.664	40.96
347.876	-36.86
348.087	-36.86
348.299	-45.06
348.51	24.58
348.722	34.82
348.933	-12.29
349.145	-0
349.356	-10.24
349.568	67.58
349.779	43.01
349.991	-69.63
350.202	-57.34
350.414	67.58
350.625	-69.63
350.836	14.34
351.048	20.48
351.259	-77.82
351.471	34.82
351.682	94.21
351.893	-28.67
352.105	38.91
352.316	22.53
352.527	-47.1
352.739	-94.21
352.95	10.24
353.161	6.14
353.372	8.19
353.584	26.62
353.795	30.72
354.006	45.06
354.217	-8.19
354.429	-16.38
354.64	-59.39
354.851	8.19
355.062	-38.91
355.274	-12.29
355.485	-8.19
355.696	26.62
355.907	-59.39
356.118	-47.1
356.329	24.58
356.54	51.2
356.752	-2.05
356.963	131.07
357.174	16.38
357.385	55.3
357.596	10.24
357.807	-43.01
358.018	36.86
358.229	47.1
358.44	-40.96
358.651	45.06
358.862	45.06
359.073	-28.67
359.284	-77.82
359.495	-36.86
359.706	-10.24
359.917	53.25
360.128	124.93
360.339	-16.38
360.55	8.19
360.761	-16.38
360.972	22.53
361.182	-26.62
361.393	43.01
361.604	-14.34
361.815	2.05
362.026	61.44
362.237	43.01
362.447	6.14
362.658	26.62
362.869	47.1
363.08	-24.58
363.291	-57.34
363.501	143.36
363.712	71.68
363.923	32.77
364.134	-8.19
364.344	-28.67
364.555	94.21
364.766	61.44
364.976	-24.58
365.187	-55.3
365.398	4.1
365.608	-49.15
365.819	-55.3
366.03	32.77
366.24	36.86
366.451	-245.76
366.662	120.83
366.872	34.82
367.083	149.5
367.293	20.48
367.504	102.4
367.714	-0
367.925	12.29
368.135	2.05
368.346	-34.82
368.557	-6.14
368.767	86.01
368.977	-8.19
369.188	67.58
369.398	53.25
369.609	81.92
369.819	-4.1
370.03	49.15
370.24	100.35
370.451	59.39
370.661	59.39
370.871	137.21
371.082	-28.67
371.292	79.87
371.502	43.01
371.713	45.06
371.923	-28.67
372.133	-8.19
372.344	-0
372.554	65.53
372.764	88.06
372.975	45.06
373.185	40.96
373.395	12.29
373.605	83.97
373.816	-59.39
374.026	81.92
374.236	30.72
374.446	22.53
374.656	-49.15
374.867	-8.19
375.077	96.25
375.287	18.43
375.497	-20.48
375.707	16.38
375.917	-55.3
376.127	28.67
376.338	63.49
376.548	-38.91
376.758	8.19
376.968	53.25
377.178	26.62
377.388	-24.58
377.598	49.15
377.808	38.91
378.018	69.63
378.228	2.05
378.438	45.06
378.648	-38.91
378.858	116.73
379.068	-63.49
379.278	94.21
379.488	-34.82
379.698	-28.67
379.908	-18.43
380.118	81.92
380.327	40.96
380.537	-106.49
380.747	-118.78
380.957	75.77
381.167	34.82
381.377	61.44
381.587	90.11
381.796	131.07
382.006	-22.53
382.216	120.83
382.426	26.62
382.636	-20.48
382.845	8.19
383.055	43.01
383.265	61.44
383.475	10.24
383.684	-30.72
383.894	-10.24
384.104	-108.54
384.313	86.01
384.523	51.2
384.733	73.73
384.942	-18.43
385.152	22.53
385.362	43.01
385.571	26.62
385.781	-4.1
385.991	12.29
386.2	14.34
386.41	-94.21
386.619	-26.62
386.829	112.64
387.038	-98.3
387.248	118.78
387.457	133.12
387.667	40.96
387.876	-2.05
388.086	-24.58
388.295	34.82
388.505	149.5
388.714	30.72
388.924	-75.77
389.133	14.34
389.343	-34.82
389.552	-36.86
389.762	81.92
389.971	14.34
390.18	45.06
390.39	20.48
390.599	143.36
390.808	-0
391.018	30.72
391.227	16.38
391.436	-22.53
391.646	83.97
391.855	77.82
392.064	-18.43
392.274	83.97
392.483	69.63
392.692	-10.24
392.901	-47.1
393.111	-2.05
393.32	30.72
393.529	112.64
393.738	24.58
393.947	-47.1
394.157	47.1
394.366	92.16
394.575	61.44
394.784	32.77
394.993	-26.62
395.202	38.91
395.411	20.48
395.62	43.01
395.83	98.3
396.039	-79.87
396.248	4.1
396.457	14.34
396.666	-16.38
396.875	-59.39
397.084	53.25
397.293	24.58
397.502	-22.53
397.711	-63.49
397.92	55.3
398.129	-16.38
398.338	49.15
398.547	-32.77
398.756	-45.06
398.965	94.21
399.174	79.87
399.382	116.73
399.591	-26.62
399.8	116.73
400.009	18.43
400.218	22.53
400.427	-4.1
400.636	47.1
400.844	92.16
401.053	77.82
401.262	-14.34
401.471	67.58
401.68	-43.01
401.888	49.15
402.097	65.53
402.306	22.53
402.515	24.58
402.723	-34.82
402.932	-4.1
403.141	-12.29
403.35	30.72
403.558	20.48
403.767	94.21
403.976	53.25
404.184	28.67
404.393	43.01
404.602	6.14
404.81	-24.58
405.019	-108.54
405.227	61.44
405.436	53.25
405.645	59.39
405.853	-32.77
406.062	-8.19
406.27	102.4
406.479	40.96
406.687	-67.58
406.896	-90.11
407.104	65.53
407.313	71.68
407.521	165.89
407.73	73.73
407.938	81.92
408.147	-20.48
408.355	47.1
408.563	69.63
408.772	-45.06
408.98	118.78
409.189	51.2
409.397	36.86
409.605	-49.15
409.814	135.17
410.022	43.01
410.23	75.77
410.439	43.01
410.647	55.3
410.855	4.1
411.064	73.73
411.272	28.67
411.48	106.49
411.688	20.48
411.897	81.92
412.105	-4.1
412.313	47.1
412.521	-65.54
412.73	116.73
412.938	24.58
413.146	-157.69
413.354	59.39
413.562	-45.06
413.77	22.53
413.979	43.01
414.187	104.45
414.395	-36.86
414.603	-77.82
414.811	30.72
415.019	79.87
415.227	-14.34
415.435	88.06
415.643	100.35
415.851	116.73
416.059	67.58
416.267	155.65
416.475	219.13
416.683	188.41
416.891	180.22
417.099	129.02
417.307	210.94
417.515	104.45
417.723	86.01
417.931	233.47
418.139	157.69
418.347	104.45
418.555	51.2
418.763	196.6
418.971	120.83
419.179	4.1
419.386	49.15
419.594	-4.1
419.802	18.43
420.01	47.1
420.218	395.26
420.426	655.35
420.633	272.38
420.841	458.74
421.049	137.21
421.257	241.66
421.464	110.59
421.672	239.61
421.88	104.45
422.088	34.82
422.295	92.16
422.503	202.75
422.711	120.83
422.918	69.63
423.126	-34.82
423.334	-2.05
423.541	6.14
423.749	-79.87
423.956	32.77
424.164	34.82
424.372	106.49
424.579	4.1
424.787	36.86
424.994	124.93
425.202	-26.62
425.409	-10.24
425.617	73.73
425.824	34.82
426.032	106.49
426.239	24.58
426.447	184.32
426.654	83.97
426.862	79.87
427.069	204.8
427.277	239.61
427.484	155.65
427.692	118.78
427.899	186.37
428.106	217.08
428.314	133.12
428.521	118.78
428.728	88.06
428.936	114.69
429.143	63.49
429.351	65.53
429.558	124.93
429.765	133.12
429.972	40.96
430.18	-6.14
430.387	198.65
430.594	-28.67
430.801	-10.24
431.009	8.19
431.216	69.63
431.423	126.97
431.63	-34.82
431.838	69.63
432.045	79.87
432.252	102.4
432.459	122.88
432.666	71.68
432.873	212.99
433.081	10.24
433.288	38.91
433.495	6.14
433.702	401.4
433.909	147.45
434.116	122.88
434.323	215.04
434.53	253.95
434.737	290.81
434.944	182.27
435.151	210.94
435.358	116.73
435.565	18.43
435.772	-8.19
435.979	149.5
436.186	288.76
436.393	102.4
436.6	73.73
436.807	120.83
437.014	135.17
437.221	38.91
437.428	65.53
437.635	86.01
437.841	198.65
438.048	51.2
438.255	106.49
438.462	65.53
438.669	202.75
438.876	-12.29
439.082	38.91
439.289	51.2
439.496	69.63
439.703	14.34
439.91	-26.62
440.116	319.48
440.323	231.42
440.53	24.58
440.737	49.15
440.943	301.05
441.15	274.43
441.357	38.91
441.563	75.77
441.77	120.83
441.977	413.69
442.183	65.53
442.39	114.69
442.597	190.46
442.803	272.38
443.01	182.27
443.216	12.29
443.423	225.28
443.63	249.85
443.836	262.14
444.043	135.17
444.249	169.98
444.456	419.83
444.662	247.8
444.869	133.12
445.075	180.22
445.282	344.06
445.488	235.52
445.695	96.25
445.901	59.39
446.107	366.59
446.314	233.47
446.52	309.24
446.727	126.97
446.933	253.95
447.139	196.6
447.346	196.6
447.552	94.21
447.759	219.13
447.965	290.81
448.171	182.27
448.378	206.84
448.584	323.58
448.79	464.89
448.996	163.84
449.203	208.89
449.409	143.36
449.615	260.09
449.821	272.38
450.028	159.74
450.234	184.32
450.44	235.52
450.646	360.44
450.852	227.32
451.059	100.35
451.265	276.48
451.471	280.57
451.677	305.15
451.883	210.94
452.089	223.23
452.295	296.96
452.502	94.21
452.708	280.57
452.914	192.51
453.12	520.18
453.326	223.23
453.532	301.05
453.738	139.26
453.944	204.8
454.15	186.37
454.356	296.96
454.562	112.64
454.768	124.93
454.974	145.41
455.18	270.33
455.386	202.75
455.592	190.46
455.798	133.12
456.003	141.31
456.209	215.04
456.415	22.53
456.621	126.97
456.827	194.56
457.033	118.78
457.239	28.67
457.444	49.15
457.65	145.41
457.856	-18.43
458.062	88.06
458.268	-40.96
458.473	172.03
458.679	112.64
458.885	223.23
459.091	88.06
459.296	120.83
459.502	-2.05
459.708	176.13
459.914	-8.19
460.119	90.11
460.325	-10.24
460.531	135.17
460.736	153.6
460.942	83.97
461.147	57.34
461.353	100.35
461.559	63.49
461.764	38.91
461.97	-6.14
462.175	38.91
462.381	92.16
462.587	141.31
462.792	-98.3
462.998	114.69
463.203	116.73
463.409	81.92
463.614	163.84
463.82	40.96
464.025	110.59
464.231	18.43
464.436	114.69
464.641	49.15
464.847	116.73
465.052	49.15
465.258	40.96
465.463	184.32
465.669	133.12
465.874	131.07
466.079	49.15
466.285	253.95
466.49	112.64
466.695	83.97
466.901	75.77
467.106	55.3
467.311	26.62
467.516	20.48
467.722	40.96
467.927	190.46
468.132	55.3
468.338	43.01
468.543	98.3
468.748	10.24
468.953	6.14
469.158	157.69
469.364	28.67
469.569	120.83
469.774	26.62
469.979	71.68
470.184	96.25
470.389	147.45
470.594	38.91
470.8	227.32
471.005	114.69
471.21	346.11
471.415	-4.1
471.62	77.82
471.825	139.26
472.03	157.69
472.235	147.45
472.44	202.75
472.645	153.6
472.85	239.61
473.055	104.45
473.26	280.57
473.465	-20.48
473.67	206.84
473.875	167.93
474.08	237.56
474.285	167.93
474.49	284.67
474.695	98.3
474.899	176.13
475.104	182.27
475.309	370.68
475.514	116.73
475.719	151.55
475.924	118.78
476.128	96.25
476.333	120.83
476.538	270.33
476.743	151.55
476.948	200.7
477.152	219.13
477.357	350.2
477.562	256
477.767	210.94
477.971	178.17
478.176	260.09
478.381	114.69
478.585	393.21
478.79	98.3
478.995	212.99
479.199	204.8
479.404	335.87
479.609	176.13
479.813	378.87
480.018	169.98
480.223	442.36
480.427	522.23
480.632	370.68
480.836	114.69
481.041	524.28
481.245	272.38
481.45	272.38
481.654	344.06
481.859	307.2
482.063	223.23
482.268	376.83
482.472	329.72
482.677	473.08
482.881	505.85
483.086	278.52
483.29	182.27
483.495	419.83
483.699	587.77
483.903	567.29
484.108	587.77
484.312	524.28
484.517	411.64
484.721	446.46
484.925	428.03
485.13	430.07
485.334	161.79
485.538	305.15
485.743	376.83
485.947	530.42
486.151	509.94
486.355	325.63
486.56	180.22
486.764	475.13
486.968	548.86
487.172	423.93
487.377	722.93
487.581	421.88
487.785	280.57
487.989	673.78
488.193	665.59
488.397	860.15
488.602	466.94
488.806	452.6
489.01	434.17
489.214	561.14
489.418	600.05
489.622	503.8
489.826	397.31
490.03	544.76
490.234	372.73
490.438	577.53
490.642	614.39
490.846	329.72
491.05	227.32
491.254	303.1
491.458	307.2
491.662	827.38
491.866	757.75
492.07	301.05
492.274	276.48
492.478	585.72
492.682	430.07
492.886	690.17
493.09	544.76
493.294	413.69
493.498	292.86
493.701	536.57
493.905	446.46
494.109	712.69
494.313	495.61
494.517	464.89
494.721	430.07
494.924	464.89
495.128	380.92
495.332	690.17
495.536	501.75
495.739	417.79
495.943	405.5
496.147	370.68
496.351	366.59
496.554	759.8
496.758	342.01
496.962	333.82
497.165	272.38
497.369	450.55
497.573	366.59
497.776	804.85
497.98	428.03
498.184	307.2
498.387	348.15
498.591	350.2
498.794	493.56
498.998	600.05
499.202	337.91
499.405	309.24
499.609	376.83
499.812	225.28
500.016	385.02
500.219	731.12
500.423	366.59
500.626	319.48
500.83	331.77
501.033	524.28
501.237	208.89
501.44	612.34
501.643	202.75
501.847	430.07
502.05	378.87
502.254	235.52
502.457	397.31
502.66	645.11
502.864	294.91
503.067	253.95
503.271	264.19
503.474	126.97
503.677	415.74
503.88	446.46
504.084	266.24
504.287	202.75
504.49	419.83
504.694	374.78
504.897	329.72
505.1	487.42
505.303	315.39
505.507	653.3
505.71	231.42
505.913	413.69
506.116	294.91
506.319	450.55
506.522	610.29
506.726	477.18
506.929	204.8
507.132	434.17
507.335	161.79
507.538	159.74
507.741	303.1
507.944	133.12
508.147	196.6
508.35	481.27
508.553	200.7
508.756	194.56
508.959	286.72
509.163	290.81
509.366	223.23
509.569	497.66
509.771	161.79
509.974	415.74
510.177	253.95
510.38	305.15
510.583	376.83
510.786	356.35
510.989	362.49
511.192	430.07
511.395	206.84
511.598	364.54
511.801	270.33
512.004	331.77
512.206	157.69
512.409	466.94
512.612	325.63
512.815	319.48
513.018	202.75
513.22	468.98
513.423	321.53
513.626	251.9
513.829	196.6
514.032	516.09
514.234	303.1
514.437	442.36
514.64	327.67
514.842	360.44
515.045	325.63
515.248	454.65
515.45	337.91
515.653	389.11
515.856	458.74
516.058	204.8
516.261	532.47
516.464	163.84
516.666	262.14
516.869	628.73
517.071	317.44
517.274	518.14
517.477	210.94
517.679	477.18
517.882	413.69
518.084	585.72
518.287	315.39
518.489	811
518.692	460.79
518.894	499.7
519.097	524.28
519.299	376.83
519.501	495.61
519.704	581.62
519.906	499.7
520.109	731.12
520.311	163.84
520.514	608.25
520.716	372.73
520.918	311.29
521.121	450.55
521.323	628.73
521.525	419.83
521.728	702.45
521.93	268.28
522.132	536.57
522.335	509.94
522.537	604.15
522.739	335.87
522.941	598.01
523.144	395.26
523.346	432.12
523.548	325.63
523.75	526.33
523.952	413.69
524.155	356.35
524.357	342.01
524.559	585.72
524.761	282.62
524.963	581.62
525.165	423.93
525.368	366.59
525.57	491.51
525.772	520.18
525.974	442.36
526.176	499.7
526.378	262.14
526.58	630.77
526.782	358.39
526.984	526.33
527.186	360.44
527.388	313.34
527.59	288.76
527.792	511.99
527.994	176.13
528.196	573.43
528.398	282.62
528.6	395.26
528.802	172.03
529.004	299
529.206	223.23
529.408	655.35
529.609	288.76
529.811	669.69
530.013	245.76
530.215	446.46
530.417	272.38
530.619	231.42
530.821	409.59
531.022	329.72
531.224	137.21
531.426	550.9
531.628	241.66
531.829	391.16
532.031	440.31
532.233	88.06
532.435	274.43
532.636	149.5
532.838	397.31
533.04	256
533.241	188.41
533.443	528.38
533.645	280.57
533.846	155.65
534.048	235.52
534.25	403.45
534.451	227.32
534.653	124.93
534.855	184.32
535.056	321.53
535.258	200.7
535.459	458.74
535.661	73.73
535.862	249.85
536.064	155.65
536.265	223.23
536.467	151.55
536.668	143.36
536.87	106.49
537.071	237.56
537.273	249.85
537.474	237.56
537.676	266.24
537.877	290.81
538.078	102.4
538.28	124.93
538.481	57.34
538.683	282.62
538.884	55.3
539.085	368.63
539.287	135.17
539.488	307.2
539.689	106.49
539.891	323.58
540.092	131.07
540.293	133.12
540.495	167.93
540.696	221.18
540.897	90.11
541.098	217.08
541.3	212.99
541.501	145.41
541.702	235.52
541.903	198.65
542.104	208.89
542.306	96.25
542.507	182.27
542.708	366.59
542.909	120.83
543.11	266.24
543.311	10.24
543.512	122.88
543.713	161.79
543.915	182.27
544.116	167.93
544.317	319.48
544.518	268.28
544.719	231.42
544.92	65.53
545.121	102.4
545.322	141.31
545.523	92.16
545.724	176.13
545.925	215.04
546.126	79.87
546.327	380.92
546.528	133.12
546.729	327.67
546.929	161.79
547.13	284.67
547.331	124.93
547.532	169.98
547.733	280.57
547.934	227.32
548.135	200.7
548.336	440.31
548.536	114.69
548.737	368.63
548.938	256
549.139	239.61
549.34	167.93
549.54	317.44
549.741	167.93
549.942	233.47
550.143	-131.07
550.343	321.53
550.544	143.36
550.745	456.7
550.945	174.08
551.146	198.65
551.347	139.26
551.547	266.24
551.748	139.26
551.949	284.67
552.149	344.06
552.35	167.93
552.551	368.63
552.751	360.44
552.952	114.69
553.152	305.15
553.353	86.01
553.553	329.72
553.754	219.13
553.954	251.9
554.155	239.61
554.356	407.55
554.556	270.33
554.756	278.52
554.957	419.83
555.157	405.5
555.358	407.55
555.558	514.04
555.759	225.28
555.959	270.33
556.159	262.14
556.36	399.35
556.56	317.44
556.761	507.9
556.961	391.16
557.161	372.73
557.362	471.03
557.562	602.1
557.762	239.61
557.963	808.95
558.163	364.54
558.363	321.53
558.563	600.05
558.764	350.2
558.964	430.07
559.164	368.63
559.364	542.71
559.565	292.86
559.765	626.68
559.965	237.56
560.165	389.11
560.365	731.12
560.565	210.94
560.766	630.77
560.966	417.79
561.166	133.12
561.366	499.7
561.566	526.33
561.766	190.46
561.966	618.49
562.166	460.79
562.366	550.9
562.566	458.74
562.766	473.08
562.966	186.37
563.166	692.21
563.366	299
563.566	438.27
563.766	548.86
563.966	440.31
564.166	430.07
564.366	473.08
564.566	350.2
564.766	653.3
564.966	245.76
565.166	643.06
565.366	430.07
565.565	376.83
565.765	184.32
565.965	382.97
566.165	233.47
566.365	706.55
566.565	514.04
566.764	307.2
566.964	458.74
567.164	413.69
567.364	315.39
567.564	536.57
567.763	305.15
567.963	96.25
568.163	507.9
568.362	489.46
568.562	352.25
568.762	491.51
568.961	206.84
569.161	380.92
569.361	106.49
569.56	471.03
569.76	229.37
569.96	327.67
570.159	172.03
570.359	315.39
570.558	321.53
570.758	479.22
570.958	110.59
571.157	387.07
571.357	425.98
571.556	196.6
571.756	247.8
571.955	587.77
572.155	83.97
572.354	595.96
572.554	200.7
572.753	264.19
572.953	436.22
573.152	198.65
573.351	225.28
573.551	532.47
573.75	139.26
573.95	196.6
574.149	45.06
574.348	348.15
574.548	225.28
574.747	172.03
574.946	194.56
575.146	423.93
575.345	32.77
575.544	268.28
575.744	77.82
575.943	104.45
576.142	305.15
576.342	219.13
576.541	301.05
576.74	223.23
576.939	227.32
577.138	237.56
577.338	229.37
577.537	151.55
577.736	165.89
577.935	163.84
578.134	219.13
578.333	139.26
578.533	153.6
578.732	126.97
578.931	38.91
579.13	518.14
579.329	129.02
579.528	282.62
579.727	198.65
579.926	47.1
580.125	235.52
580.324	169.98
580.523	141.31
580.722	186.37
580.921	157.69
581.12	212.99
581.319	159.74
581.518	212.99
581.717	157.69
581.916	153.6
582.115	163.84
582.314	200.7
582.513	59.39
582.712	176.13
582.911	90.11
583.109	184.32
583.308	69.63
583.507	88.06
583.706	180.22
583.905	112.64
584.104	313.34
584.302	94.21
584.501	126.97
584.7	126.97
584.899	61.44
585.098	229.37
585.296	182.27
585.495	137.21
585.694	147.45
585.892	182.27
586.091	49.15
586.29	75.77
586.488	155.65
586.687	258.04
586.886	12.29
587.084	153.6
587.283	10.24
587.482	73.73
587.68	59.39
587.879	219.13
588.077	102.4
588.276	73.73
588.475	165.89
588.673	88.06
588.872	182.27
589.07	184.32
589.269	180.22
589.467	241.66
589.666	22.53
589.864	208.89
590.063	118.78
590.261	143.36
590.46	161.79
590.658	88.06
590.857	112.64
591.055	145.41
591.253	75.77
591.452	122.88
591.65	100.35
591.848	118.78
592.047	100.35
592.245	131.07
592.444	116.73
592.642	118.78
592.84	126.97
593.038	77.82
593.237	157.69
593.435	180.22
593.633	227.32
593.832	45.06
594.03	186.37
594.228	120.83
594.426	69.63
594.624	40.96
594.823	112.64
595.021	278.52
595.219	51.2
595.417	169.98
595.615	-8.19
595.813	75.77
596.012	49.15
596.21	176.13
596.408	-45.06
596.606	110.59
596.804	129.02
597.002	-53.25
597.2	112.64
597.398	129.02
597.596	104.45
597.794	108.54
597.992	-18.43
598.19	129.02
598.388	100.35
598.586	81.92
598.784	59.39
598.982	86.01
599.18	260.09
599.378	86.01
599.576	100.35
599.774	104.45
599.972	14.34
600.17	126.97
600.368	67.58
600.565	221.18
600.763	59.39
600.961	126.97
601.159	79.87
601.357	20.48
601.555	202.75
601.752	225.28
601.95	36.86
602.148	24.58
602.346	102.4
602.544	237.56
602.741	-36.86
602.939	59.39
603.137	-22.53
603.334	57.34
603.532	96.25
603.73	155.65
603.927	198.65
604.125	122.88
604.323	-53.25
604.52	167.93
604.718	100.35
604.916	145.41
605.113	-114.69
605.311	241.66
605.508	71.68
605.706	149.5
605.904	104.45
606.101	45.06
606.299	83.97
