Data from LSP66_S15_Subt4_17-45-43-309.txt Node
Date: Wed Aug 09 17:45:43 EDT 2023
User: Emmanuel
Spectrometer: USB4A00615
Scans to average: 1
Trigger mode: 1
Integration Time (sec): 5.000000E-3
Electric dark correction enabled: true
Boxcar width: 0
XAxis mode: Wavelengths
Number of Pixels in Spectrum: 3648
>>>>>Begin Spectral Data<<<<<
346.606	-89.09
346.818	-89.09
347.029	-89.09
347.241	138.24
347.452	87.04
347.664	46.08
347.876	-121.85
348.087	78.85
348.299	19.46
348.51	-7.17
348.722	-17.41
348.933	56.32
349.145	-60.42
349.356	11.26
349.568	29.7
349.779	-25.6
349.991	-9.22
350.202	78.85
350.414	-54.27
350.625	-107.52
350.836	23.55
351.048	19.46
351.259	-21.5
351.471	-54.27
351.682	-5.12
351.893	-50.18
352.105	87.04
352.316	-68.61
352.527	-41.98
352.739	-66.56
352.95	37.89
353.161	-31.74
353.372	-23.55
353.584	-3.07
353.795	3.07
354.006	48.13
354.217	54.27
354.429	-23.55
354.64	5.12
354.851	91.13
355.062	17.41
355.274	44.03
355.485	1.02
355.696	-9.22
355.907	70.65
356.118	23.55
356.329	17.41
356.54	5.12
356.752	17.41
356.963	9.22
357.174	-41.98
357.385	-29.7
357.596	9.22
357.807	1.02
358.018	31.74
358.229	60.42
358.44	-15.36
358.651	-29.7
358.862	-27.65
359.073	29.7
359.284	-76.8
359.495	-76.8
359.706	-52.22
359.917	-39.94
360.128	-11.26
360.339	-50.18
360.55	-89.09
360.761	-25.6
360.972	27.65
361.182	-50.18
361.393	5.12
361.604	-1.02
361.815	-44.03
362.026	1.02
362.237	-17.41
362.447	35.84
362.658	19.46
362.869	7.17
363.08	-87.04
363.291	5.12
363.501	64.51
363.712	-17.41
363.923	-29.7
364.134	-89.09
364.344	-146.43
364.555	-58.37
364.766	91.13
364.976	-125.95
365.187	-3.07
365.398	171.01
365.608	48.13
365.819	-27.65
366.03	27.65
366.24	-33.79
366.451	-132.09
366.662	31.74
366.872	-3.07
367.083	80.89
367.293	62.46
367.504	-9.22
367.714	-19.46
367.925	130.05
368.135	-152.57
368.346	33.79
368.557	-117.76
368.767	11.26
368.977	17.41
369.188	72.7
369.398	11.26
369.609	17.41
369.819	-11.26
370.03	-27.65
370.24	-31.74
370.451	41.98
370.661	46.08
370.871	-7.17
371.082	-5.12
371.292	-72.7
371.502	31.74
371.713	44.03
371.923	1.02
372.133	-27.65
372.344	19.46
372.554	-31.74
372.764	-31.74
372.975	46.08
373.185	9.22
373.395	29.7
373.605	-58.37
373.816	66.56
374.026	19.46
374.236	-105.47
374.446	-64.51
374.656	-41.98
374.867	99.33
375.077	-109.57
375.287	27.65
375.497	-11.26
375.707	70.65
375.917	3.07
376.127	68.61
376.338	21.5
376.548	-3.07
376.758	58.37
376.968	-82.94
377.178	-17.41
377.388	-17.41
377.598	89.09
377.808	3.07
378.018	-25.6
378.228	33.79
378.438	-58.37
378.648	-23.55
378.858	-101.37
379.068	15.36
379.278	-1.02
379.488	-23.55
379.698	62.46
379.908	37.89
380.118	-111.61
380.327	-11.26
380.537	-15.36
380.747	-37.89
380.957	60.42
381.167	-1.02
381.377	39.94
381.587	-74.75
381.796	-23.55
382.006	-39.94
382.216	19.46
382.426	-60.42
382.636	35.84
382.845	-15.36
383.055	-19.46
383.265	-54.27
383.475	5.12
383.684	3.07
383.894	-76.8
384.104	35.84
384.313	-27.65
384.523	-13.31
384.733	7.17
384.942	128
385.152	37.89
385.362	-44.03
385.571	-25.6
385.781	-29.7
385.991	25.6
386.2	37.89
386.41	-60.42
386.619	-103.42
386.829	-17.41
387.038	-29.7
387.248	54.27
387.457	46.08
387.667	-15.36
387.876	93.18
388.086	11.26
388.295	-54.27
388.505	-19.46
388.714	101.37
388.924	-31.74
389.133	33.79
389.343	7.17
389.552	-17.41
389.762	-33.79
389.971	-29.7
390.18	-3.07
390.39	33.79
390.599	-74.75
390.808	-111.61
391.018	-54.27
391.227	95.23
391.436	-23.55
391.646	-52.22
391.855	74.75
392.064	11.26
392.274	37.89
392.483	-21.5
392.692	-39.94
392.901	-27.65
393.111	33.79
393.32	9.22
393.529	72.7
393.738	7.17
393.947	-41.98
394.157	-68.61
394.366	-62.46
394.575	54.27
394.784	54.27
394.993	29.7
395.202	15.36
395.411	48.13
395.62	72.7
395.83	60.42
396.039	-13.31
396.248	74.75
396.457	-3.07
396.666	74.75
396.875	144.38
397.084	60.42
397.293	1.02
397.502	80.89
397.711	60.42
397.92	33.79
398.129	-60.42
398.338	-17.41
398.547	-54.27
398.756	37.89
398.965	9.22
399.174	-3.07
399.382	-37.89
399.591	-41.98
399.8	-29.7
400.009	-97.28
400.218	-11.26
400.427	-158.72
400.636	-19.46
400.844	-123.9
401.053	-29.7
401.262	-17.41
401.471	72.7
401.68	23.55
401.888	35.84
402.097	27.65
402.306	-109.57
402.515	-19.46
402.723	-21.5
402.932	-11.26
403.141	7.17
403.35	35.84
403.558	82.94
403.767	-54.27
403.976	7.17
404.184	35.84
404.393	23.55
404.602	-72.7
404.81	9.22
405.019	13.31
405.227	-21.5
405.436	31.74
405.645	13.31
405.853	15.36
406.062	25.6
406.27	-15.36
406.479	1.02
406.687	-3.07
406.896	-41.98
407.104	-31.74
407.313	82.94
407.521	33.79
407.73	-37.89
407.938	82.94
408.147	66.56
408.355	-58.37
408.563	52.22
408.772	13.31
408.98	-68.61
409.189	50.18
409.397	-64.51
409.605	-62.46
409.814	31.74
410.022	46.08
410.23	-44.03
410.439	37.89
410.647	-111.61
410.855	21.5
411.064	-66.56
411.272	-54.27
411.48	1.02
411.688	-35.84
411.897	-25.6
412.105	-46.08
412.313	-11.26
412.521	56.32
412.73	82.94
412.938	66.56
413.146	-95.23
413.354	76.8
413.562	27.65
413.77	-27.65
413.979	-58.37
414.187	-23.55
414.395	-29.7
414.603	-3.07
414.811	46.08
415.019	-23.55
415.227	44.03
415.435	25.6
415.643	35.84
415.851	37.89
416.059	-17.41
416.267	-105.47
416.475	15.36
416.683	72.7
416.891	19.46
417.099	33.79
417.307	21.5
417.515	82.94
417.723	-44.03
417.931	23.55
418.139	15.36
418.347	-3.07
418.555	-111.61
418.763	-19.46
418.971	-37.89
419.179	-21.5
419.386	-1.02
419.594	50.18
419.802	-17.41
420.01	50.18
420.218	19.46
420.426	-101.37
420.633	1.02
420.841	-13.31
421.049	-64.51
421.257	-62.46
421.464	-21.5
421.672	-25.6
421.88	-37.89
422.088	-21.5
422.295	11.26
422.503	7.17
422.711	27.65
422.918	76.8
423.126	-58.37
423.334	25.6
423.541	31.74
423.749	-29.7
423.956	-46.08
424.164	-130.05
424.372	3.07
424.579	-9.22
424.787	-50.18
424.994	-82.94
425.202	25.6
425.409	37.89
425.617	74.75
425.824	-9.22
426.032	-97.28
426.239	5.12
426.447	23.55
426.654	-33.79
426.862	44.03
427.069	48.13
427.277	68.61
427.484	-27.65
427.692	-64.51
427.899	-50.18
428.106	-29.7
428.314	-117.76
428.521	48.13
428.728	74.75
428.936	-82.94
429.143	60.42
429.351	37.89
429.558	-5.12
429.765	41.98
429.972	21.5
430.18	-13.31
430.387	-9.22
430.594	-107.52
430.801	-54.27
431.009	58.37
431.216	11.26
431.423	13.31
431.63	29.7
431.838	-9.22
432.045	3.07
432.252	54.27
432.459	-19.46
432.666	-5.12
432.873	-97.28
433.081	87.04
433.288	11.26
433.495	-50.18
433.702	33.79
433.909	-15.36
434.116	68.61
434.323	109.57
434.53	68.61
434.737	11.26
434.944	56.32
435.151	-91.13
435.358	15.36
435.565	21.5
435.772	-74.75
435.979	9.22
436.186	-76.8
436.393	7.17
436.6	56.32
436.807	-19.46
437.014	-64.51
437.221	-3.07
437.428	39.94
437.635	-52.22
437.841	-5.12
438.048	39.94
438.255	82.94
438.462	-58.37
438.669	-95.23
438.876	29.7
439.082	17.41
439.289	50.18
439.496	19.46
439.703	-48.13
439.91	68.61
440.116	66.56
440.323	-11.26
440.53	35.84
440.737	11.26
440.943	-62.46
441.15	46.08
441.357	56.32
441.563	-27.65
441.77	54.27
441.977	50.18
442.183	80.89
442.39	25.6
442.597	7.17
442.803	-15.36
443.01	-46.08
443.216	37.89
443.423	52.22
443.63	-82.94
443.836	64.51
444.043	-3.07
444.249	27.65
444.456	72.7
444.662	17.41
444.869	99.33
445.075	87.04
445.282	-11.26
445.488	23.55
445.695	23.55
445.901	-68.61
446.107	52.22
446.314	95.23
446.52	46.08
446.727	-70.65
446.933	-5.12
447.139	52.22
447.346	-58.37
447.552	-7.17
447.759	-115.71
447.965	1.02
448.171	-37.89
448.378	-29.7
448.584	-60.42
448.79	80.89
448.996	-23.55
449.203	11.26
449.409	-1.02
449.615	50.18
449.821	-35.84
450.028	9.22
450.234	-15.36
450.44	31.74
450.646	56.32
450.852	23.55
451.059	58.37
451.265	-33.79
451.471	-87.04
451.677	-41.98
451.883	17.41
452.089	117.76
452.295	-121.85
452.502	97.28
452.708	3.07
452.914	48.13
453.12	-39.94
453.326	-60.42
453.532	-134.14
453.738	-37.89
453.944	1.02
454.15	-31.74
454.356	-3.07
454.562	44.03
454.768	74.75
454.974	-15.36
455.18	84.99
455.386	80.89
455.592	-5.12
455.798	-62.46
456.003	-95.23
456.209	39.94
456.415	25.6
456.621	82.94
456.827	5.12
457.033	-7.17
457.239	-48.13
457.444	-5.12
457.65	-35.84
457.856	-23.55
458.062	-107.52
458.268	70.65
458.473	113.66
458.679	-91.13
458.885	-5.12
459.091	-62.46
459.296	-74.75
459.502	11.26
459.708	21.5
459.914	-89.09
460.119	-5.12
460.325	5.12
460.531	9.22
460.736	13.31
460.942	-23.55
461.147	-3.07
461.353	91.13
461.559	87.04
461.764	-25.6
461.97	-19.46
462.175	-15.36
462.381	9.22
462.587	37.89
462.792	66.56
462.998	29.7
463.203	-39.94
463.409	7.17
463.614	7.17
463.82	-1.02
464.025	-27.65
464.231	-37.89
464.436	-37.89
464.641	113.66
464.847	58.37
465.052	-31.74
465.258	-27.65
465.463	-35.84
465.669	41.98
465.874	-62.46
466.079	58.37
466.285	19.46
466.49	-9.22
466.695	-68.61
466.901	21.5
467.106	35.84
467.311	-56.32
467.516	7.17
467.722	-136.19
467.927	-29.7
468.132	72.7
468.338	-37.89
468.543	-105.47
468.748	17.41
468.953	-99.33
469.158	-31.74
469.364	35.84
469.569	-54.27
469.774	-64.51
469.979	-23.55
470.184	-46.08
470.389	1.02
470.594	-19.46
470.8	-41.98
471.005	-84.99
471.21	13.31
471.415	7.17
471.62	9.22
471.825	50.18
472.03	-13.31
472.235	21.5
472.44	35.84
472.645	44.03
472.85	35.84
473.055	9.22
473.26	54.27
473.465	33.79
473.67	93.18
473.875	-74.75
474.08	27.65
474.285	-52.22
474.49	-66.56
474.695	9.22
474.899	-1.02
475.104	39.94
475.309	-78.85
475.514	-15.36
475.719	54.27
475.924	230.4
476.128	-7.17
476.333	-44.03
476.538	3.07
476.743	-64.51
476.948	27.65
477.152	-76.8
477.357	74.75
477.562	62.46
477.767	101.37
477.971	9.22
478.176	27.65
478.381	48.13
478.585	-29.7
478.79	-66.56
478.995	25.6
479.199	-1.02
479.404	113.66
479.609	46.08
479.813	-37.89
480.018	-31.74
480.223	-15.36
480.427	-33.79
480.632	-19.46
480.836	93.18
481.041	-5.12
481.245	-11.26
481.45	-3.07
481.654	15.36
481.859	-1.02
482.063	39.94
482.268	7.17
482.472	-13.31
482.677	-64.51
482.881	-23.55
483.086	70.65
483.29	78.85
483.495	-35.84
483.699	-25.6
483.903	-15.36
484.108	-17.41
484.312	-19.46
484.517	-78.85
484.721	29.7
484.925	3.07
485.13	-7.17
485.334	1.02
485.538	25.6
485.743	64.51
485.947	27.65
486.151	101.37
486.355	46.08
486.56	-35.84
486.764	-15.36
486.968	-35.84
487.172	-64.51
487.377	39.94
487.581	-74.75
487.785	-5.12
487.989	74.75
488.193	60.42
488.397	7.17
488.602	-101.37
488.806	62.46
489.01	-37.89
489.214	46.08
489.418	-27.65
489.622	48.13
489.826	15.36
490.03	105.47
490.234	-37.89
490.438	-19.46
490.642	44.03
490.846	-27.65
491.05	31.74
491.254	1.02
491.458	50.18
491.662	62.46
491.866	23.55
492.07	33.79
492.274	-7.17
492.478	50.18
492.682	23.55
492.886	29.7
493.09	-128
493.294	-48.13
493.498	109.57
493.701	54.27
493.905	-13.31
494.109	-123.9
494.313	-60.42
494.517	7.17
494.721	19.46
494.924	37.89
495.128	29.7
495.332	9.22
495.536	-103.42
495.739	-29.7
495.943	15.36
496.147	54.27
496.351	48.13
496.554	-95.23
496.758	56.32
496.962	-17.41
497.165	-7.17
497.369	25.6
497.573	33.79
497.776	7.17
497.98	-80.89
498.184	117.76
498.387	-84.99
498.591	54.27
498.794	27.65
498.998	-5.12
499.202	9.22
499.405	48.13
499.609	-56.32
499.812	-13.31
500.016	-7.17
500.219	3.07
500.423	37.89
500.626	23.55
500.83	-39.94
501.033	164.86
501.237	-41.98
501.44	148.48
501.643	52.22
501.847	-48.13
502.05	72.7
502.254	-21.5
502.457	19.46
502.66	-25.6
502.864	-19.46
503.067	-13.31
503.271	-35.84
503.474	-7.17
503.677	-9.22
503.88	39.94
504.084	-56.32
504.287	-27.65
504.49	-39.94
504.694	-9.22
504.897	35.84
505.1	-17.41
505.303	-48.13
505.507	-48.13
505.71	-80.89
505.913	11.26
506.116	-89.09
506.319	-15.36
506.522	82.94
506.726	-48.13
506.929	74.75
507.132	-52.22
507.335	44.03
507.538	-48.13
507.741	103.42
507.944	5.12
508.147	87.04
508.35	-31.74
508.553	103.42
508.756	-5.12
508.959	-5.12
509.163	-37.89
509.366	15.36
509.569	-80.89
509.771	-89.09
509.974	37.89
510.177	35.84
510.38	-1.02
510.583	173.05
510.786	35.84
510.989	15.36
511.192	-27.65
511.395	-7.17
511.598	11.26
511.801	48.13
512.004	-13.31
512.206	78.85
512.409	-17.41
512.612	-48.13
512.815	-56.32
513.018	19.46
513.22	-44.03
513.423	-44.03
513.626	11.26
513.829	5.12
514.032	3.07
514.234	31.74
514.437	-7.17
514.64	-11.26
514.842	-54.27
515.045	132.09
515.248	9.22
515.45	-29.7
515.653	58.37
515.856	-35.84
516.058	78.85
516.261	-68.61
516.464	-1.02
516.666	3.07
516.869	23.55
517.071	-62.46
517.274	-58.37
517.477	74.75
517.679	-33.79
517.882	-1.02
518.084	31.74
518.287	-58.37
518.489	56.32
518.692	-17.41
518.894	44.03
519.097	-68.61
519.299	9.22
519.501	91.13
519.704	52.22
519.906	-84.99
520.109	-41.98
520.311	62.46
520.514	103.42
520.716	91.13
520.918	9.22
521.121	29.7
521.323	25.6
521.525	-70.65
521.728	-21.5
521.93	-17.41
522.132	33.79
522.335	-25.6
522.537	35.84
522.739	25.6
522.941	37.89
523.144	21.5
523.346	-66.56
523.548	13.31
523.75	74.75
523.952	7.17
524.155	60.42
524.357	-11.26
524.559	82.94
524.761	29.7
524.963	-17.41
525.165	-7.17
525.368	-70.65
525.57	-19.46
525.772	41.98
525.974	-37.89
526.176	-70.65
526.378	46.08
526.58	-29.7
526.782	80.89
526.984	41.98
527.186	-31.74
527.388	-132.09
527.59	-60.42
527.792	-72.7
527.994	-31.74
528.196	115.71
528.398	11.26
528.6	25.6
528.802	3.07
529.004	80.89
529.206	-76.8
529.408	97.28
529.609	41.98
529.811	44.03
530.013	82.94
530.215	76.8
530.417	52.22
530.619	-68.61
530.821	15.36
531.022	29.7
531.224	-29.7
531.426	21.5
531.628	7.17
531.829	-35.84
532.031	-130.05
532.233	-5.12
532.435	15.36
532.636	-70.65
532.838	23.55
533.04	-48.13
533.241	-5.12
533.443	7.17
533.645	-50.18
533.846	17.41
534.048	64.51
534.25	37.89
534.451	3.07
534.653	-89.09
534.855	-134.14
535.056	-33.79
535.258	-25.6
535.459	-48.13
535.661	17.41
535.862	31.74
536.064	-23.55
536.265	-1.02
536.467	-33.79
536.668	-25.6
536.87	-95.23
537.071	25.6
537.273	-33.79
537.474	58.37
537.676	-25.6
537.877	-27.65
538.078	-7.17
538.28	46.08
538.481	44.03
538.683	-25.6
538.884	-25.6
539.085	9.22
539.287	-5.12
539.488	35.84
539.689	84.99
539.891	-11.26
540.092	62.46
540.293	52.22
540.495	101.37
540.696	31.74
540.897	-44.03
541.098	-1.02
541.3	-11.26
541.501	-23.55
541.702	25.6
541.903	35.84
542.104	60.42
542.306	21.5
542.507	-21.5
542.708	-37.89
542.909	33.79
543.11	41.98
543.311	9.22
543.512	-46.08
543.713	74.75
543.915	-29.7
544.116	-17.41
544.317	1.02
544.518	166.91
544.719	-56.32
544.92	-78.85
545.121	21.5
545.322	39.94
545.523	99.33
545.724	17.41
545.925	37.89
546.126	33.79
546.327	84.99
546.528	5.12
546.729	-70.65
546.929	17.41
547.13	-91.13
547.331	-19.46
547.532	50.18
547.733	39.94
547.934	-46.08
548.135	46.08
548.336	7.17
548.536	3.07
548.737	-31.74
548.938	46.08
549.139	-27.65
549.34	111.61
549.54	-15.36
549.741	-82.94
549.942	-50.18
550.143	-87.04
550.343	39.94
550.544	89.09
550.745	25.6
550.945	80.89
551.146	-23.55
551.347	-91.13
551.547	11.26
551.748	-33.79
551.949	97.28
552.149	33.79
552.35	-7.17
552.551	58.37
552.751	1.02
552.952	-27.65
553.152	-27.65
553.353	52.22
553.553	21.5
553.754	17.41
553.954	-25.6
554.155	-113.66
554.356	-70.65
554.556	52.22
554.756	-175.1
554.957	87.04
555.157	31.74
555.358	113.66
555.558	-95.23
555.759	62.46
555.959	-7.17
556.159	7.17
556.36	-3.07
556.56	87.04
556.761	-27.65
556.961	-52.22
557.161	-3.07
557.362	41.98
557.562	21.5
557.762	15.36
557.963	31.74
558.163	89.09
558.363	-50.18
558.563	101.37
558.764	-11.26
558.964	62.46
559.164	66.56
559.364	29.7
559.565	89.09
559.765	-89.09
559.965	5.12
560.165	84.99
560.365	146.43
560.565	52.22
560.766	-7.17
560.966	23.55
561.166	-46.08
561.366	-11.26
561.566	72.7
561.766	-150.53
561.966	-44.03
562.166	58.37
562.366	54.27
562.566	35.84
562.766	-5.12
562.966	21.5
563.166	-93.18
563.366	-50.18
563.566	-25.6
563.766	-13.31
563.966	48.13
564.166	-54.27
564.366	72.7
564.566	46.08
564.766	76.8
564.966	76.8
565.166	-105.47
565.366	-19.46
565.565	66.56
565.765	-21.5
565.965	-41.98
566.165	19.46
566.365	-31.74
566.565	-5.12
566.764	93.18
566.964	-62.46
567.164	33.79
567.364	-15.36
567.564	-60.42
567.763	-54.27
567.963	-5.12
568.163	64.51
568.362	54.27
568.562	54.27
568.762	-13.31
568.961	44.03
569.161	-29.7
569.361	-19.46
569.56	5.12
569.76	25.6
569.96	17.41
570.159	-11.26
570.359	-95.23
570.558	-7.17
570.758	62.46
570.958	-37.89
571.157	33.79
571.357	-13.31
571.556	-37.89
571.756	-29.7
571.955	-25.6
572.155	89.09
572.354	82.94
572.554	27.65
572.753	-11.26
572.953	-89.09
573.152	62.46
573.351	60.42
573.551	-25.6
573.75	60.42
573.95	64.51
574.149	11.26
574.348	-41.98
574.548	50.18
574.747	-17.41
574.946	-35.84
575.146	5.12
575.345	46.08
575.544	7.17
575.744	-54.27
575.943	66.56
576.142	109.57
576.342	29.7
576.541	-1.02
576.74	5.12
576.939	-41.98
577.138	-23.55
577.338	82.94
577.537	-50.18
577.736	-72.7
577.935	-3.07
578.134	-17.41
578.333	-72.7
578.533	-15.36
578.732	19.46
578.931	91.13
579.13	-37.89
579.329	-25.6
579.528	-7.17
579.727	99.33
579.926	11.26
580.125	93.18
580.324	72.7
580.523	15.36
580.722	7.17
580.921	21.5
581.12	-23.55
581.319	46.08
581.518	89.09
581.717	13.31
581.916	-3.07
582.115	-103.42
582.314	-84.99
582.513	-21.5
582.712	99.33
582.911	-17.41
583.109	-25.6
583.308	74.75
583.507	39.94
583.706	-52.22
583.905	48.13
584.104	-46.08
584.302	-13.31
584.501	3.07
584.7	-58.37
584.899	109.57
585.098	-58.37
585.296	-154.62
585.495	58.37
585.694	23.55
585.892	-80.89
586.091	-46.08
586.29	62.46
586.488	-29.7
586.687	-31.74
586.886	-68.61
587.084	-17.41
587.283	23.55
587.482	-109.57
587.68	162.81
587.879	44.03
588.077	29.7
588.276	11.26
588.475	13.31
588.673	-52.22
588.872	-39.94
589.07	87.04
589.269	-3.07
589.467	19.46
589.666	66.56
589.864	-78.85
590.063	21.5
590.261	21.5
590.46	35.84
590.658	-41.98
590.857	-56.32
591.055	-17.41
591.253	68.61
591.452	-103.42
591.65	-44.03
591.848	-58.37
592.047	33.79
592.245	103.42
592.444	3.07
592.642	17.41
592.84	-25.6
593.038	-107.52
593.237	74.75
593.435	-7.17
593.633	37.89
593.832	-56.32
594.03	17.41
594.228	-64.51
594.426	-66.56
594.624	41.98
594.823	-58.37
595.021	19.46
595.219	29.7
595.417	101.37
595.615	-13.31
595.813	37.89
596.012	-64.51
596.21	-37.89
596.408	66.56
596.606	-25.6
596.804	11.26
597.002	19.46
597.2	-39.94
597.398	-31.74
597.596	33.79
597.794	84.99
597.992	50.18
598.19	-21.5
598.388	5.12
598.586	-48.13
598.784	31.74
598.982	-50.18
599.18	44.03
599.378	13.31
599.576	58.37
599.774	35.84
599.972	140.29
600.17	39.94
600.368	-66.56
600.565	130.05
600.763	29.7
600.961	-91.13
601.159	-68.61
601.357	109.57
601.555	101.37
601.752	9.22
601.95	107.52
602.148	31.74
602.346	-5.12
602.544	39.94
602.741	15.36
602.939	-11.26
603.137	11.26
603.334	68.61
603.532	17.41
603.73	-35.84
603.927	-23.55
604.125	-78.85
604.323	-48.13
604.52	113.66
604.718	87.04
604.916	54.27
605.113	25.6
605.311	-21.5
605.508	-46.08
605.706	-21.5
605.904	156.67
606.101	52.22
606.299	74.75
606.496	-3.07
606.694	5.12
606.891	-44.03
607.089	-41.98
607.286	89.09
607.484	62.46
607.681	-13.31
607.879	23.55
608.076	25.6
608.273	58.37
608.471	-31.74
608.668	19.46
608.866	50.18
609.063	-25.6
609.26	13.31
609.458	80.89
609.655	17.41
609.852	-74.75
610.05	-56.32
610.247	-68.61
610.444	54.27
610.642	-82.94
610.839	64.51
611.036	-91.13
