Data from LSP64_S13_Subt4_17-18-13-784.txt Node
Date: Wed Aug 09 17:18:13 EDT 2023
User: Emmanuel
Spectrometer: USB4A00615
Scans to average: 1
Trigger mode: 1
Integration Time (sec): 8.000000E-3
Electric dark correction enabled: true
Boxcar width: 0
XAxis mode: Wavelengths
Number of Pixels in Spectrum: 3648
>>>>>Begin Spectral Data<<<<<
346.606	-64.17
346.818	-64.17
347.029	-64.17
347.241	-29.35
347.452	25.94
347.664	3.41
347.876	-76.46
348.087	71
348.299	21.84
348.51	5.46
348.722	-12.97
348.933	30.04
349.145	68.95
349.356	11.61
349.568	1.37
349.779	-25.26
349.991	-98.99
350.202	-66.22
350.414	-6.83
350.625	-10.92
350.836	-29.35
351.048	-6.83
351.259	-78.51
351.471	-62.12
351.682	-27.31
351.893	34.13
352.105	89.43
352.316	-8.87
352.527	-68.27
352.739	23.89
352.95	23.89
353.161	-53.93
353.372	-103.08
353.584	17.75
353.795	-31.4
354.006	120.15
354.217	-6.83
354.429	-109.23
354.64	-6.83
354.851	-51.88
355.062	40.28
355.274	-35.5
355.485	-2.73
355.696	56.66
355.907	11.61
356.118	-68.27
356.329	-0.68
356.54	34.13
356.752	-33.45
356.963	66.9
357.174	-68.27
357.385	-8.87
357.596	25.94
357.807	-55.98
358.018	40.28
358.229	68.95
358.44	-35.5
358.651	-47.79
358.862	-55.98
359.073	-10.92
359.284	-4.78
359.495	15.7
359.706	-80.55
359.917	-60.07
360.128	25.94
360.339	-51.88
360.55	-33.45
360.761	-39.59
360.972	17.75
361.182	68.95
361.393	5.46
361.604	30.04
361.815	-31.4
362.026	25.94
362.237	7.51
362.447	-53.93
362.658	36.18
362.869	36.18
363.08	-133.8
363.291	58.71
363.501	38.23
363.712	-74.41
363.923	-53.93
364.134	-92.84
364.344	-51.88
364.555	-6.83
364.766	11.61
364.976	-41.64
365.187	-39.59
365.398	75.09
365.608	19.8
365.819	19.8
366.03	-29.35
366.24	-15.02
366.451	-74.41
366.662	75.09
366.872	-41.64
367.083	11.61
367.293	17.75
367.504	-45.74
367.714	-148.14
367.925	77.14
368.135	-8.87
368.346	32.08
368.557	-103.08
368.767	-94.89
368.977	7.51
369.188	-62.12
369.398	9.56
369.609	-33.45
369.819	-45.74
370.03	11.61
370.24	-82.6
370.451	-31.4
370.661	-4.78
370.871	-37.55
371.082	11.61
371.292	-60.07
371.502	3.41
371.713	56.66
371.923	-47.79
372.133	-19.11
372.344	1.37
372.554	-15.02
372.764	-129.7
372.975	23.89
373.185	5.46
373.395	-39.59
373.605	-0.68
373.816	15.7
374.026	-37.55
374.236	-29.35
374.446	54.61
374.656	-2.73
374.867	-51.88
375.077	-53.93
375.287	-6.83
375.497	13.65
375.707	9.56
375.917	-43.69
376.127	-4.78
376.338	58.71
376.548	83.28
376.758	17.75
376.968	-107.18
377.178	19.8
377.388	-86.7
377.598	99.67
377.808	-23.21
378.018	-10.92
378.228	32.08
378.438	-68.27
378.648	-43.69
378.858	-92.84
379.068	-15.02
379.278	66.9
379.488	-6.83
379.698	21.84
379.908	-68.27
380.118	-62.12
380.327	-76.46
380.537	27.99
380.747	-53.93
380.957	19.8
381.167	-10.92
381.377	-90.79
381.587	-19.11
381.796	-19.11
382.006	-33.45
382.216	27.99
382.426	-94.89
382.636	56.66
382.845	-15.02
383.055	7.51
383.265	5.46
383.475	-49.83
383.684	25.94
383.894	-12.97
384.104	7.51
384.313	-51.88
384.523	-15.02
384.733	48.47
384.942	48.47
385.152	36.18
385.362	-62.12
385.571	25.94
385.781	-68.27
385.991	-33.45
386.2	-68.27
386.41	-43.69
386.619	-37.55
386.829	71
387.038	-60.07
387.248	62.8
387.457	-15.02
387.667	-31.4
387.876	-12.97
388.086	-66.22
388.295	-51.88
388.505	-49.83
388.714	54.61
388.924	-25.26
389.133	48.47
389.343	161.11
389.552	-43.69
389.762	-12.97
389.971	54.61
390.18	-64.17
390.39	-0.68
390.599	-80.55
390.808	-123.56
391.018	-6.83
391.227	73.04
391.436	-84.65
391.646	-39.59
391.855	95.57
392.064	-98.99
392.274	11.61
392.483	-131.75
392.692	-78.51
392.901	-29.35
393.111	34.13
393.32	-76.46
393.529	83.28
393.738	36.18
393.947	-66.22
394.157	-111.27
394.366	-2.73
394.575	42.32
394.784	-8.87
394.993	-39.59
395.202	-76.46
395.411	30.04
395.62	3.41
395.83	-23.21
396.039	34.13
396.248	32.08
396.457	71
396.666	140.63
396.875	101.72
397.084	-82.6
397.293	3.41
397.502	-25.26
397.711	-0.68
397.92	21.84
398.129	-33.45
398.338	-6.83
398.547	21.84
398.756	-74.41
398.965	-21.16
399.174	13.65
399.382	-121.51
399.591	-60.07
399.8	-47.79
400.009	21.84
400.218	1.37
400.427	-84.65
400.636	-27.31
400.844	-66.22
401.053	5.46
401.262	13.65
401.471	-51.88
401.68	-162.47
401.888	17.75
402.097	38.23
402.306	-74.41
402.515	13.65
402.723	-43.69
402.932	54.61
403.141	7.51
403.35	-12.97
403.558	101.72
403.767	-141.99
403.976	-0.68
404.184	-78.51
404.393	36.18
404.602	-51.88
404.81	3.41
405.019	-35.5
405.227	-15.02
405.436	-74.41
405.645	46.42
405.853	-62.12
406.062	93.52
406.27	-25.26
406.479	-72.36
406.687	-21.16
406.896	-103.08
407.104	-74.41
407.313	56.66
407.521	-41.64
407.73	-4.78
407.938	46.42
408.147	-12.97
408.355	-88.75
408.563	23.89
408.772	-17.07
408.98	-84.65
409.189	64.85
409.397	-72.36
409.605	-86.7
409.814	-41.64
410.022	-15.02
410.23	-129.7
410.439	40.28
410.647	-135.85
410.855	-19.11
411.064	32.08
411.272	-39.59
411.48	-8.87
411.688	23.89
411.897	-51.88
412.105	-131.75
412.313	-21.16
412.521	11.61
412.73	44.37
412.938	71
413.146	3.41
413.354	75.09
413.562	-74.41
413.77	-121.51
413.979	-21.16
414.187	-94.89
414.395	19.8
414.603	-21.16
414.811	77.14
415.019	-172.71
415.227	71
415.435	-154.28
415.643	-66.22
415.851	-8.87
416.059	-76.46
416.267	-58.03
416.475	15.7
416.683	89.43
416.891	-47.79
417.099	46.42
417.307	-4.78
417.515	-35.5
417.723	-29.35
417.931	-39.59
418.139	-74.41
418.347	-33.45
418.555	-109.23
418.763	-17.07
418.971	-47.79
419.179	1.37
419.386	-74.41
419.594	-21.16
419.802	1.37
420.01	27.99
420.218	9.56
420.426	34.13
420.633	54.61
420.841	66.9
421.049	-21.16
421.257	-119.46
421.464	-29.35
421.672	13.65
421.88	-21.16
422.088	-25.26
422.295	34.13
422.503	38.23
422.711	66.9
422.918	-94.89
423.126	-31.4
423.334	-55.98
423.541	52.56
423.749	-66.22
423.956	-12.97
424.164	-43.69
424.372	-94.89
424.579	-31.4
424.787	-15.02
424.994	-12.97
425.202	-51.88
425.409	-0.68
425.617	30.04
425.824	-29.35
426.032	-41.64
426.239	32.08
426.447	11.61
426.654	-58.03
426.862	23.89
427.069	38.23
427.277	-15.02
427.484	-66.22
427.692	-43.69
427.899	-144.04
428.106	73.04
428.314	11.61
428.521	48.47
428.728	7.51
428.936	-39.59
429.143	-37.55
429.351	11.61
429.558	68.95
429.765	128.34
429.972	62.8
430.18	1.37
430.387	1.37
430.594	-62.12
430.801	64.85
431.009	73.04
431.216	-15.02
431.423	34.13
431.63	-6.83
431.838	83.28
432.045	-17.07
432.252	36.18
432.459	13.65
432.666	17.75
432.873	-88.75
433.081	21.84
433.288	-17.07
433.495	-45.74
433.702	13.65
433.909	-72.36
434.116	-51.88
434.323	42.32
434.53	-12.97
434.737	-25.26
434.944	-0.68
435.151	-33.45
435.358	-8.87
435.565	34.13
435.772	-29.35
435.979	54.61
436.186	21.84
436.393	-2.73
436.6	-10.92
436.807	-43.69
437.014	-84.65
437.221	-129.7
437.428	54.61
437.635	-37.55
437.841	11.61
438.048	46.42
438.255	9.56
438.462	-72.36
438.669	-105.13
438.876	-41.64
439.082	-2.73
439.289	56.66
439.496	21.84
439.703	-53.93
439.91	1.37
440.116	64.85
440.323	-25.26
440.53	23.89
440.737	-55.98
440.943	-113.32
441.15	-25.26
441.357	81.24
441.563	-37.55
441.77	13.65
441.977	-6.83
442.183	99.67
442.39	3.41
442.597	9.56
442.803	-105.13
443.01	-53.93
443.216	-15.02
443.423	30.04
443.63	-113.32
443.836	-55.98
444.043	32.08
444.249	17.75
444.456	-21.16
444.662	-25.26
444.869	62.8
445.075	30.04
445.282	36.18
445.488	17.75
445.695	-51.88
445.901	-76.46
446.107	91.48
446.314	48.47
446.52	-27.31
446.727	-129.7
446.933	15.7
447.139	42.32
447.346	-39.59
447.552	-29.35
447.759	-33.45
447.965	-80.55
448.171	-27.31
448.378	-15.02
448.584	11.61
448.79	-17.07
448.996	15.7
449.203	-45.74
449.409	-47.79
449.615	-4.78
449.821	91.48
450.028	52.56
450.234	13.65
450.44	17.75
450.646	75.09
450.852	107.86
451.059	7.51
451.265	48.47
451.471	9.56
451.677	-66.22
451.883	-72.36
452.089	48.47
452.295	-90.79
452.502	-37.55
452.708	36.18
452.914	13.65
453.12	40.28
453.326	-78.51
453.532	-55.98
453.738	-0.68
453.944	-2.73
454.15	-62.12
454.356	-58.03
454.562	25.94
454.768	130.39
454.974	-19.11
455.18	-80.55
455.386	68.95
455.592	-55.98
455.798	-23.21
456.003	-74.41
456.209	11.61
456.415	-17.07
456.621	27.99
456.827	-4.78
457.033	-27.31
457.239	-62.12
457.444	-55.98
457.65	7.51
457.856	36.18
458.062	9.56
458.268	101.72
458.473	52.56
458.679	-74.41
458.885	58.71
459.091	-29.35
459.296	-84.65
459.502	-39.59
459.708	64.85
459.914	-68.27
460.119	46.42
460.325	71
460.531	-12.97
460.736	116.05
460.942	52.56
461.147	-45.74
461.353	-45.74
461.559	68.95
461.764	-33.45
461.97	3.41
462.175	-74.41
462.381	68.95
462.587	-6.83
462.792	-31.4
462.998	30.04
463.203	-68.27
463.409	-49.83
463.614	11.61
463.82	11.61
464.025	52.56
464.231	-23.21
464.436	-6.83
464.641	58.71
464.847	-15.02
465.052	-64.17
465.258	48.47
465.463	-8.87
465.669	56.66
465.874	-62.12
466.079	95.57
466.285	-82.6
466.49	-84.65
466.695	-19.11
466.901	34.13
467.106	-49.83
467.311	-45.74
467.516	-84.65
467.722	-60.07
467.927	13.65
468.132	1.37
468.338	-58.03
468.543	-29.35
468.748	-0.68
468.953	-68.27
469.158	-25.26
469.364	-15.02
469.569	-78.51
469.774	-101.03
469.979	-0.68
470.184	-66.22
470.389	-33.45
470.594	-60.07
470.8	13.65
471.005	-144.04
471.21	75.09
471.415	13.65
471.62	25.94
471.825	75.09
472.03	-119.46
472.235	50.52
472.44	-62.12
472.645	3.41
472.85	73.04
473.055	-45.74
473.26	-10.92
473.465	1.37
473.67	9.56
473.875	-10.92
474.08	-80.55
474.285	-45.74
474.49	-37.55
474.695	-27.31
474.899	-19.11
475.104	-31.4
475.309	-76.46
475.514	-41.64
475.719	101.72
475.924	73.04
476.128	-23.21
476.333	48.47
476.538	-6.83
476.743	-33.45
476.948	-70.31
477.152	-105.13
477.357	48.47
477.562	146.77
477.767	3.41
477.971	68.95
478.176	-55.98
478.381	-49.83
478.585	34.13
478.79	-72.36
478.995	62.8
479.199	30.04
479.404	36.18
479.609	21.84
479.813	-6.83
480.018	46.42
480.223	27.99
480.427	-45.74
480.632	-12.97
480.836	71
481.041	-105.13
481.245	-45.74
481.45	89.43
481.654	-23.21
481.859	-86.7
482.063	-23.21
482.268	36.18
482.472	-37.55
482.677	32.08
482.881	91.48
483.086	58.71
483.29	50.52
483.495	-27.31
483.699	7.51
483.903	103.76
484.108	46.42
484.312	91.48
484.517	-33.45
484.721	-92.84
484.925	-37.55
485.13	-47.79
485.334	9.56
485.538	3.41
485.743	5.46
485.947	27.99
486.151	48.47
486.355	17.75
486.56	-21.16
486.764	7.51
486.968	-55.98
487.172	-2.73
487.377	-8.87
487.581	-19.11
487.785	-10.92
487.989	17.75
488.193	81.24
488.397	-43.69
488.602	-2.73
488.806	-111.27
489.01	-10.92
489.214	23.89
489.418	-8.87
489.622	-47.79
489.826	34.13
490.03	11.61
490.234	5.46
490.438	-19.11
490.642	-74.41
490.846	3.41
491.05	21.84
491.254	-72.36
491.458	34.13
491.662	44.37
491.866	-33.45
492.07	-35.5
492.274	77.14
492.478	56.66
492.682	79.19
492.886	32.08
493.09	-205.48
493.294	-103.08
493.498	97.62
493.701	-66.22
493.905	54.61
494.109	-53.93
494.313	-53.93
494.517	7.51
494.721	-0.68
494.924	-27.31
495.128	9.56
495.332	9.56
495.536	-47.79
495.739	3.41
495.943	-109.23
496.147	-70.31
496.351	7.51
496.554	-37.55
496.758	-66.22
496.962	-92.84
497.165	-21.16
497.369	-2.73
497.573	68.95
497.776	64.85
497.98	-113.32
498.184	62.8
498.387	-78.51
498.591	3.41
498.794	7.51
498.998	-0.68
499.202	23.89
499.405	-29.35
499.609	-64.17
499.812	-33.45
500.016	-62.12
500.219	34.13
500.423	58.71
500.626	32.08
500.83	-80.55
501.033	89.43
501.237	-80.55
501.44	118.1
501.643	-25.26
501.847	-25.26
502.05	44.37
502.254	1.37
502.457	-33.45
502.66	-35.5
502.864	32.08
503.067	-23.21
503.271	-35.5
503.474	-4.78
503.677	-49.83
503.88	-37.55
504.084	-58.03
504.287	27.99
504.49	-29.35
504.694	-12.97
504.897	34.13
505.1	87.38
505.303	-0.68
505.507	19.8
505.71	-58.03
505.913	-80.55
506.116	-94.89
506.319	56.66
506.522	56.66
506.726	30.04
506.929	19.8
507.132	13.65
507.335	-12.97
507.538	-62.12
507.741	52.56
507.944	-39.59
508.147	93.52
508.35	21.84
508.553	15.7
508.756	-41.64
508.959	-66.22
509.163	-53.93
509.366	-90.79
509.569	-2.73
509.771	-60.07
509.974	-74.41
510.177	48.47
510.38	3.41
510.583	46.42
510.786	1.37
510.989	34.13
511.192	-47.79
511.395	11.61
511.598	46.42
511.801	5.46
512.004	5.46
512.206	30.04
512.409	36.18
512.612	38.23
512.815	-37.55
513.018	-62.12
513.22	58.71
513.423	-66.22
513.626	-66.22
513.829	7.51
514.032	7.51
514.234	48.47
514.437	-62.12
514.64	-4.78
514.842	5.46
515.045	17.75
515.248	-68.27
515.45	-17.07
515.653	-23.21
515.856	-109.23
516.058	-25.26
516.261	46.42
516.464	50.52
516.666	5.46
516.869	9.56
517.071	-84.65
517.274	-107.18
517.477	34.13
517.679	-60.07
517.882	-41.64
518.084	-82.6
518.287	-33.45
518.489	9.56
518.692	13.65
518.894	11.61
519.097	-141.99
519.299	-15.02
519.501	46.42
519.704	13.65
519.906	-2.73
520.109	-68.27
520.311	36.18
520.514	73.04
520.716	23.89
520.918	-37.55
521.121	-2.73
521.323	-35.5
521.525	15.7
521.728	-29.35
521.93	25.94
522.132	44.37
522.335	73.04
522.537	17.75
522.739	-10.92
522.941	60.76
523.144	-105.13
523.346	38.23
523.548	23.89
523.75	-88.75
523.952	-25.26
524.155	120.15
524.357	-37.55
524.559	56.66
524.761	1.37
524.963	-23.21
525.165	-4.78
525.368	-43.69
525.57	-0.68
525.772	-12.97
525.974	-68.27
526.176	3.41
526.378	7.51
526.58	99.67
526.782	36.18
526.984	-4.78
527.186	-37.55
527.388	-80.55
527.59	-2.73
527.792	-80.55
527.994	-33.45
528.196	25.94
528.398	-72.36
528.6	111.96
528.802	-29.35
529.004	11.61
529.206	-0.68
529.408	36.18
529.609	23.89
529.811	56.66
530.013	109.91
530.215	-39.59
530.417	52.56
530.619	-103.08
530.821	27.99
531.022	54.61
531.224	-21.16
531.426	81.24
531.628	58.71
531.829	19.8
532.031	-94.89
532.233	9.56
532.435	-6.83
532.636	-131.75
532.838	-35.5
533.04	-27.31
533.241	9.56
533.443	87.38
533.645	-21.16
533.846	1.37
534.048	-21.16
534.25	-68.27
534.451	-15.02
534.653	21.84
534.855	-107.18
535.056	-33.45
535.258	44.37
535.459	-21.16
535.661	40.28
535.862	11.61
536.064	-29.35
536.265	-29.35
536.467	11.61
536.668	30.04
536.87	-66.22
537.071	-37.55
537.273	-137.9
537.474	-12.97
537.676	-66.22
537.877	44.37
538.078	-47.79
538.28	77.14
538.481	73.04
538.683	56.66
538.884	-68.27
539.085	-119.46
539.287	11.61
539.488	27.99
539.689	17.75
539.891	34.13
540.092	-39.59
540.293	15.7
540.495	34.13
540.696	-37.55
540.897	-2.73
541.098	-37.55
541.3	5.46
541.501	25.94
541.702	-31.4
541.903	103.76
542.104	62.8
542.306	-111.27
542.507	-2.73
542.708	-41.64
542.909	34.13
543.11	77.14
543.311	-6.83
543.512	79.19
543.713	11.61
543.915	-39.59
544.116	-80.55
544.317	-37.55
544.518	126.29
544.719	79.19
544.92	-8.87
545.121	-8.87
545.322	68.95
545.523	23.89
545.724	-33.45
545.925	25.94
546.126	25.94
546.327	95.57
546.528	73.04
546.729	-45.74
546.929	-94.89
547.13	-4.78
547.331	11.61
547.532	89.43
547.733	21.84
547.934	13.65
548.135	46.42
548.336	-29.35
548.536	42.32
548.737	81.24
548.938	109.91
549.139	-35.5
549.34	32.08
549.54	5.46
549.741	-37.55
549.942	44.37
550.143	-139.94
550.343	-19.11
550.544	97.62
550.745	-80.55
550.945	71
551.146	-6.83
551.347	-29.35
551.547	15.7
551.748	-8.87
551.949	46.42
552.149	3.41
552.35	73.04
552.551	1.37
552.751	93.52
552.952	-6.83
553.152	-72.36
553.353	-62.12
553.553	-21.16
553.754	21.84
553.954	-135.85
554.155	-47.79
554.356	-62.12
554.556	-12.97
554.756	-121.51
554.957	5.46
555.157	-10.92
555.358	140.63
555.558	-31.4
555.759	15.7
555.959	-60.07
556.159	-15.02
556.36	-19.11
556.56	5.46
556.761	-25.26
556.961	66.9
557.161	34.13
557.362	68.95
557.562	-35.5
557.762	-25.26
557.963	64.85
558.163	54.61
558.363	-60.07
558.563	-15.02
558.764	13.65
558.964	-10.92
559.164	48.47
559.364	-82.6
559.565	-45.74
559.765	-17.07
559.965	5.46
560.165	62.8
560.365	40.28
560.565	36.18
560.766	-37.55
560.966	-115.37
561.166	-25.26
561.366	-19.11
561.566	79.19
561.766	-68.27
561.966	-96.94
562.166	50.52
562.366	-6.83
562.566	-8.87
562.766	-12.97
562.966	-21.16
563.166	-119.46
563.366	-45.74
563.566	-27.31
563.766	-10.92
563.966	27.99
564.166	-47.79
564.366	36.18
564.566	7.51
564.766	15.7
564.966	-35.5
565.166	-141.99
565.366	-39.59
565.565	107.86
565.765	5.46
565.965	-35.5
566.165	-8.87
566.365	15.7
566.565	1.37
566.764	-66.22
566.964	-10.92
567.164	7.51
567.364	1.37
567.564	-109.23
567.763	-15.02
567.963	60.76
568.163	-33.45
568.362	56.66
568.562	111.96
568.762	-72.36
568.961	11.61
569.161	-62.12
569.361	-35.5
569.56	-2.73
569.76	60.76
569.96	38.23
570.159	-43.69
570.359	-189.1
570.558	15.7
570.758	1.37
570.958	56.66
571.157	-68.27
571.357	-6.83
571.556	62.8
571.756	-23.21
571.955	32.08
572.155	46.42
572.354	52.56
572.554	21.84
572.753	19.8
572.953	-31.4
573.152	-51.88
573.351	-47.79
573.551	-15.02
573.75	-55.98
573.95	-39.59
574.149	-37.55
574.348	-27.31
574.548	1.37
574.747	-68.27
574.946	5.46
575.146	-37.55
575.345	68.95
575.544	17.75
575.744	-123.56
575.943	-29.35
576.142	50.52
576.342	-39.59
576.541	27.99
576.74	-12.97
576.939	-96.94
577.138	-25.26
577.338	5.46
577.537	40.28
577.736	-23.21
577.935	46.42
578.134	-113.32
578.333	-27.31
578.533	52.56
578.732	-55.98
578.931	25.94
579.13	58.71
579.329	-86.7
579.528	-53.93
579.727	34.13
579.926	56.66
580.125	105.81
580.324	34.13
580.523	-23.21
580.722	-37.55
580.921	13.65
581.12	-94.89
581.319	68.95
581.518	-4.78
581.717	46.42
581.916	-53.93
582.115	-133.8
582.314	-62.12
582.513	15.7
582.712	48.47
582.911	-19.11
583.109	-141.99
583.308	23.89
583.507	13.65
583.706	-53.93
583.905	-66.22
584.104	-41.64
584.302	-72.36
584.501	-92.84
584.7	13.65
584.899	27.99
585.098	-94.89
585.296	-156.33
585.495	58.71
585.694	19.8
585.892	-58.03
586.091	-10.92
586.29	7.51
586.488	5.46
586.687	-64.17
586.886	-80.55
587.084	11.61
587.283	66.9
587.482	-80.55
587.68	122.2
587.879	-45.74
588.077	-66.22
588.276	9.56
588.475	15.7
588.673	-25.26
588.872	40.28
589.07	19.8
589.269	15.7
589.467	-92.84
589.666	-21.16
589.864	50.52
590.063	23.89
590.261	40.28
590.46	-82.6
590.658	36.18
590.857	-105.13
591.055	58.71
591.253	-70.31
591.452	21.84
591.65	-68.27
591.848	-105.13
592.047	17.75
592.245	-12.97
592.444	-45.74
592.642	32.08
592.84	27.99
593.038	-4.78
593.237	13.65
593.435	79.19
593.633	-41.64
593.832	-49.83
594.03	44.37
594.228	-41.64
594.426	3.41
594.624	-17.07
594.823	-21.16
595.021	-62.12
595.219	-35.5
595.417	13.65
595.615	-92.84
595.813	-82.6
596.012	-70.31
596.21	-64.17
596.408	54.61
596.606	27.99
596.804	-6.83
597.002	-76.46
597.2	7.51
597.398	-70.31
597.596	-94.89
597.794	13.65
597.992	36.18
598.19	27.99
598.388	40.28
598.586	-96.94
598.784	21.84
598.982	-41.64
599.18	44.37
599.378	5.46
599.576	44.37
599.774	11.61
599.972	36.18
600.17	-49.83
600.368	-60.07
600.565	11.61
600.763	-8.87
600.961	-90.79
601.159	-55.98
601.357	105.81
601.555	-0.68
601.752	-49.83
601.95	83.28
602.148	-10.92
602.346	-27.31
602.544	-21.16
602.741	-137.9
602.939	-121.51
603.137	154.96
603.334	-68.27
603.532	-33.45
603.73	13.65
603.927	3.41
604.125	-4.78
604.323	-31.4
604.52	23.89
604.718	9.56
604.916	75.09
605.113	-47.79
605.311	27.99
605.508	-66.22
605.706	-25.26
605.904	83.28
606.101	15.7
606.299	-21.16
606.496	32.08
606.694	-58.03
606.891	-21.16
607.089	7.51
607.286	19.8
607.484	71
607.681	36.18
607.879	-35.5
608.076	17.75
608.273	32.08
608.471	-29.35
608.668	-8.87
608.866	68.95
609.063	21.84
609.26	34.13
609.458	25.94
