Data from LSP63_S12_Subt4_17-13-28-762.txt Node
Date: Wed Aug 09 17:13:28 EDT 2023
User: Emmanuel
Spectrometer: USB4A00615
Scans to average: 1
Trigger mode: 1
Integration Time (sec): 1.300000E-2
Electric dark correction enabled: true
Boxcar width: 0
XAxis mode: Wavelengths
Number of Pixels in Spectrum: 3648
>>>>>Begin Spectral Data<<<<<
346.606	-35.33
346.818	-35.33
347.029	-35.33
347.241	65.02
347.452	46.59
347.664	-57.86
347.876	-104.96
348.087	87.55
348.299	-53.76
348.51	-16.9
348.722	26.11
348.933	30.21
349.145	17.92
349.356	91.65
349.568	-37.38
349.779	44.54
349.991	-27.14
350.202	30.21
350.414	-74.24
350.625	-152.06
350.836	40.45
351.048	-18.94
351.259	-92.67
351.471	-12.8
351.682	-49.66
351.893	17.92
352.105	89.6
352.316	-2.56
352.527	-100.86
352.739	-84.48
352.95	65.02
353.161	-82.43
353.372	-29.18
353.584	-23.04
353.795	67.07
354.006	22.02
354.217	-55.81
354.429	17.92
354.64	-0.51
354.851	-14.85
355.062	1.54
355.274	-0.51
355.485	89.6
355.696	1.54
355.907	9.73
356.118	9.73
356.329	58.88
356.54	73.21
356.752	-94.72
356.963	62.98
357.174	-37.38
357.385	-31.23
357.596	-39.42
357.807	-18.94
358.018	60.93
358.229	79.36
358.44	48.64
358.651	-47.62
358.862	-90.62
359.073	56.83
359.284	-64
359.495	-39.42
359.706	19.97
359.917	-20.99
360.128	26.11
360.339	-51.71
360.55	-14.85
360.761	3.58
360.972	-59.9
361.182	11.78
361.393	50.69
361.604	-68.09
361.815	-61.95
362.026	17.92
362.237	-12.8
362.447	-45.57
362.658	-37.38
362.869	-31.23
363.08	-96.77
363.291	5.63
363.501	112.13
363.712	-20.99
363.923	-47.62
364.134	-109.05
364.344	-55.81
364.555	1.54
364.766	30.21
364.976	-47.62
365.187	-41.47
365.398	87.55
365.608	40.45
365.819	-59.9
366.03	44.54
366.24	58.88
366.451	-64
366.662	9.73
366.872	-41.47
367.083	105.98
367.293	-18.94
367.504	-16.9
367.714	-2.56
367.925	85.5
368.135	-90.62
368.346	19.97
368.557	-90.62
368.767	-0.51
368.977	-0.51
369.188	26.11
369.398	101.89
369.609	17.92
369.819	15.87
370.03	-14.85
370.24	-18.94
370.451	-51.71
370.661	62.98
370.871	-4.61
371.082	73.21
371.292	-29.18
371.502	-49.66
371.713	22.02
371.923	1.54
372.133	-0.51
372.344	-10.75
372.554	22.02
372.764	-49.66
372.975	56.83
373.185	-18.94
373.395	-72.19
373.605	-82.43
373.816	40.45
374.026	19.97
374.236	-92.67
374.446	-18.94
374.656	-2.56
374.867	-78.33
375.077	-47.62
375.287	5.63
375.497	-84.48
375.707	75.26
375.917	-14.85
376.127	-51.71
376.338	13.82
376.548	54.78
376.758	-10.75
376.968	5.63
377.178	-51.71
377.388	-55.81
377.598	50.69
377.808	-41.47
378.018	32.26
378.228	26.11
378.438	-57.86
378.648	-70.14
378.858	-6.66
379.068	19.97
379.278	15.87
379.488	-51.71
379.698	5.63
379.908	-49.66
380.118	-27.14
380.327	-102.91
380.537	-47.62
380.747	-4.61
380.957	116.22
381.167	13.82
381.377	-66.05
381.587	-66.05
381.796	3.58
382.006	-4.61
382.216	56.83
382.426	-90.62
382.636	34.3
382.845	52.74
383.055	15.87
383.265	5.63
383.475	-2.56
383.684	-37.38
383.894	-98.81
384.104	65.02
384.313	15.87
384.523	-0.51
384.733	-47.62
384.942	48.64
385.152	22.02
385.362	-25.09
385.571	-6.66
385.781	-82.43
385.991	32.26
386.2	-51.71
386.41	-14.85
386.619	-35.33
386.829	79.36
387.038	-43.52
387.248	13.82
387.457	-49.66
387.667	26.11
387.876	5.63
388.086	-64
388.295	42.5
388.505	-4.61
388.714	120.32
388.924	1.54
389.133	132.61
389.343	42.5
389.552	-39.42
389.762	-20.99
389.971	-45.57
390.18	15.87
390.39	17.92
390.599	5.63
390.808	-18.94
391.018	11.78
391.227	-16.9
391.436	-33.28
391.646	-49.66
391.855	56.83
392.064	-29.18
392.274	-45.57
392.483	-31.23
392.692	-94.72
392.901	-31.23
393.111	26.11
393.32	-29.18
393.529	89.6
393.738	73.21
393.947	-45.57
394.157	-31.23
394.366	36.35
394.575	185.85
394.784	58.88
394.993	-94.72
395.202	32.26
395.411	48.64
395.62	28.16
395.83	220.67
396.039	42.5
396.248	-27.14
396.457	91.65
396.666	112.13
396.875	101.89
397.084	-4.61
397.293	60.93
397.502	40.45
397.711	36.35
397.92	67.07
398.129	-33.28
398.338	50.69
398.547	22.02
398.756	-64
398.965	56.83
399.174	28.16
399.382	-10.75
399.591	38.4
399.8	17.92
400.009	-14.85
400.218	-6.66
400.427	-27.14
400.636	-29.18
400.844	-0.51
401.053	32.26
401.262	157.18
401.471	341.5
401.68	17.92
401.888	52.74
402.097	71.17
402.306	-109.05
402.515	79.36
402.723	17.92
402.932	161.28
403.141	-31.23
403.35	38.4
403.558	50.69
403.767	-47.62
403.976	1.54
404.184	28.16
404.393	130.56
404.602	28.16
404.81	13.82
405.019	312.83
405.227	159.23
405.436	132.61
405.645	101.89
405.853	71.17
406.062	40.45
406.27	40.45
406.479	52.74
406.687	-4.61
406.896	-55.81
407.104	95.74
407.313	136.7
407.521	173.57
407.73	493.05
407.938	495.1
408.147	105.98
408.355	73.21
408.563	87.55
408.772	38.4
408.98	19.97
409.189	40.45
409.397	19.97
409.605	-16.9
409.814	69.12
410.022	48.64
410.23	-39.42
410.439	110.08
410.647	269.82
410.855	206.33
411.064	-47.62
411.272	73.21
411.48	73.21
411.688	15.87
411.897	17.92
412.105	13.82
412.313	24.06
412.521	32.26
412.73	153.09
412.938	214.52
413.146	36.35
413.354	69.12
413.562	58.88
413.77	173.57
413.979	22.02
414.187	69.12
414.395	136.7
414.603	22.02
414.811	173.57
415.019	177.66
415.227	206.33
415.435	112.13
415.643	26.11
415.851	531.96
416.059	478.71
416.267	1517.03
416.475	2465.24
416.683	3263.95
416.891	1129.97
417.099	1037.81
417.307	1875.43
417.515	1961.44
417.723	474.62
417.931	382.46
418.139	679.41
418.347	245.24
418.555	167.42
418.763	638.45
418.971	669.17
419.179	392.7
419.386	290.3
419.594	1398.25
419.802	1916.39
420.01	1078.77
420.218	2264.54
420.426	5608.87
420.633	4294.08
420.841	3505.61
421.049	2381.28
421.257	2667.99
421.464	1025.52
421.672	904.69
421.88	714.23
422.088	894.45
422.295	396.79
422.503	230.91
422.711	607.73
422.918	325.12
423.126	34.3
423.334	265.72
423.541	288.25
423.749	-25.09
423.956	192
424.164	220.67
424.372	202.24
424.579	265.72
424.787	247.29
424.994	394.75
425.202	536.06
425.409	263.68
425.617	202.24
425.824	581.11
426.032	486.9
426.239	734.71
426.447	1476.07
426.654	2252.25
426.862	1410.54
427.069	2262.49
427.277	2641.37
427.484	3599.82
427.692	2026.98
427.899	1621.48
428.106	2049.5
428.314	1029.62
428.521	722.42
428.728	538.1
428.936	361.98
429.143	511.48
429.351	298.49
429.558	830.96
429.765	1777.12
429.972	861.68
430.18	380.41
430.387	2667.99
430.594	2401.76
430.801	1445.35
431.009	1111.54
431.216	529.91
431.423	540.15
431.63	212.48
431.838	192
432.045	251.39
432.252	724.47
432.459	169.47
432.666	220.67
432.873	663.03
433.081	966.13
433.288	658.93
433.495	654.84
433.702	2831.83
433.909	2029.03
434.116	1308.14
434.323	878.07
434.53	1508.84
434.737	2295.26
434.944	1906.15
435.151	1265.13
435.358	1504.75
435.565	966.13
435.772	427.51
435.979	304.64
436.186	941.55
436.393	437.75
436.6	312.83
436.807	368.12
437.014	763.38
437.221	720.37
437.428	579.06
437.635	402.94
437.841	1031.66
438.048	1136.11
438.255	339.45
438.462	261.63
438.669	1119.73
438.876	800.24
439.082	628.21
439.289	413.18
439.496	683.51
439.703	534.01
439.91	1025.52
440.116	968.18
440.323	1302
440.53	925.17
440.737	1011.18
440.943	894.45
441.15	1277.42
441.357	1455.59
441.563	728.56
441.77	384.51
441.977	1420.78
442.183	1435.11
442.39	1162.73
442.597	1385.96
442.803	1699.3
443.01	1676.77
443.216	1017.33
443.423	466.42
443.63	1164.78
443.836	1746.41
444.043	1451.5
444.249	646.65
444.456	1320.43
444.662	1711.59
444.869	996.85
445.075	1054.19
445.282	1027.57
445.488	1091.06
445.695	1537.51
445.901	464.38
446.107	1193.45
446.314	1177.07
446.52	2086.37
446.727	1041.9
446.933	1035.76
447.139	972.27
447.346	1142.25
447.552	773.62
447.759	747
447.965	710.13
448.171	1103.34
448.378	1125.87
448.584	1471.98
448.79	927.22
448.996	1218.03
449.203	1117.68
449.409	990.7
449.615	589.3
449.821	1113.58
450.028	1023.47
450.234	787.96
450.44	603.64
450.646	1312.24
450.852	1228.27
451.059	1052.14
451.265	1388.01
451.471	1132.01
451.677	1920.48
451.883	1111.54
452.089	708.09
452.295	591.35
452.502	671.22
452.708	1623.53
452.914	841.2
453.12	1261.04
453.326	628.21
453.532	1631.72
453.738	620.02
453.944	413.18
454.15	423.42
454.356	1549.8
454.562	1164.78
454.768	904.69
454.974	419.32
455.18	794.1
455.386	1093.1
455.592	581.11
455.798	312.83
456.003	470.52
456.209	562.68
456.415	509.43
456.621	462.33
456.827	609.78
457.033	374.27
457.239	730.61
457.444	132.61
457.65	525.82
457.856	364.03
458.062	775.67
458.268	404.99
458.473	562.68
458.679	445.95
458.885	1101.3
459.091	503.29
459.296	1011.18
459.502	292.35
459.708	681.46
459.914	407.03
460.119	1578.47
460.325	378.36
460.531	343.55
460.736	878.07
460.942	636.41
461.147	732.66
461.353	615.93
461.559	329.21
461.764	982.51
461.97	783.86
462.175	663.03
462.381	335.35
462.587	747
462.792	534.01
462.998	699.89
463.203	296.44
463.409	1267.18
463.614	804.34
463.82	1111.54
464.025	607.73
464.231	1017.33
464.436	468.47
464.641	628.21
464.847	734.71
465.052	970.23
465.258	335.35
465.463	1306.09
465.669	2098.66
465.874	1564.14
466.079	1144.3
466.285	712.18
466.49	470.52
466.695	1203.69
466.901	603.64
467.106	1250.8
467.311	450.04
467.516	853.49
467.722	1549.8
467.927	2203.1
468.132	906.74
468.338	1115.63
468.543	837.11
468.748	1009.14
468.953	429.56
469.158	2033.12
469.364	1318.38
469.569	1615.34
469.774	820.72
469.979	1881.57
470.184	904.69
470.389	1527.27
470.594	1105.39
470.8	1789.41
471.005	929.27
471.21	2078.18
471.415	572.92
471.62	1488.36
471.825	1404.39
472.03	1646.05
472.235	1576.42
472.44	1953.25
472.645	1396.2
472.85	1740.26
473.055	1777.12
473.26	1580.52
473.465	808.44
473.67	1803.75
473.875	1494.51
474.08	1687.01
474.285	701.94
474.49	1609.19
474.695	1107.44
474.899	2229.73
475.104	1973.73
475.309	2184.67
475.514	1322.48
475.719	2661.85
475.924	1652.2
476.128	1582.57
476.333	1936.87
476.538	1965.54
476.743	728.56
476.948	1822.18
477.152	2051.55
477.357	1957.35
477.562	1326.57
477.767	1932.77
477.971	1535.46
478.176	1719.78
478.381	1375.72
478.585	1713.64
478.79	869.87
478.995	2112.99
479.199	1801.7
479.404	1521.13
479.609	1107.44
479.813	1975.78
480.018	1469.93
480.223	2837.97
480.427	2569.69
480.632	1586.66
480.836	1107.44
481.041	2346.46
481.245	2049.5
481.45	2024.93
481.654	1697.25
481.859	1408.49
482.063	1304.04
482.268	2500.06
482.472	2186.72
482.677	1682.92
482.881	1666.53
483.086	1502.7
483.29	1420.78
483.495	2452.95
483.699	2477.53
483.903	3481.03
484.108	3513.8
484.312	3495.37
484.517	2301.4
484.721	2235.87
484.925	1508.84
485.13	1572.33
485.334	1111.54
485.538	2080.22
485.743	1822.18
485.947	2094.56
486.151	1854.95
486.355	1641.96
486.56	1277.42
486.764	2455
486.968	1715.69
487.172	1345
487.377	1922.53
487.581	1605.1
487.785	1222.13
487.989	2721.24
488.193	3323.34
488.397	2885.08
488.602	2237.92
488.806	1932.77
489.01	1641.96
489.214	1732.07
489.418	1291.76
489.622	1275.37
489.826	937.46
490.03	1684.97
490.234	1551.85
490.438	1748.45
490.642	1068.53
490.846	900.59
491.05	755.19
491.254	1588.71
491.458	988.66
491.662	2209.25
491.866	1005.04
492.07	867.83
492.274	1039.86
492.478	1656.29
492.682	1013.23
492.886	1557.99
493.09	843.25
493.294	681.46
493.498	769.52
493.701	1562.09
493.905	1041.9
494.109	1336.81
494.313	730.61
494.517	1043.95
494.721	970.23
494.924	1238.51
495.128	908.79
495.332	1560.04
495.536	787.96
495.739	1052.14
495.943	808.44
496.147	1041.9
496.351	779.76
496.554	1963.49
496.758	669.17
496.962	572.92
497.165	445.95
497.369	1238.51
497.573	1478.12
497.776	2807.25
497.98	980.47
498.184	1228.27
498.387	1435.11
498.591	1142.25
498.794	1019.38
498.998	1115.63
499.202	507.38
499.405	990.7
499.609	755.19
499.812	888.31
500.016	1521.13
500.219	3446.22
500.423	1304.04
500.626	1308.14
500.83	972.27
501.033	1934.82
501.237	1629.67
501.44	2428.38
501.643	851.44
501.847	1086.96
502.05	390.65
502.254	1275.37
502.457	1514.98
502.66	1775.08
502.864	652.79
503.067	892.4
503.271	654.84
503.474	771.57
503.677	1011.18
503.88	1306.09
504.084	599.54
504.287	1193.45
504.49	962.03
504.694	1838.56
504.897	3343.82
505.1	3595.72
505.303	1869.28
505.507	1773.03
505.71	871.92
505.913	1250.8
506.116	640.5
506.319	1838.56
506.522	3474.89
506.726	2368.99
506.929	1687.01
507.132	1521.13
507.335	304.64
507.538	822.77
507.741	1541.61
507.944	867.83
508.147	976.37
508.35	1736.17
508.553	679.41
508.756	1060.34
508.959	617.97
509.163	898.55
509.366	939.51
509.569	1854.95
509.771	751.09
509.974	1285.61
510.177	837.11
510.38	1562.09
510.583	1242.61
510.786	1422.83
510.989	1291.76
511.192	1338.86
511.395	544.25
511.598	980.47
511.801	568.82
512.004	1652.2
512.206	1482.22
512.409	1811.94
512.612	724.47
512.815	1234.41
513.018	943.6
513.22	1172.97
513.423	677.37
513.626	1310.19
513.829	1179.12
514.032	1986.02
514.234	804.34
514.437	1158.64
514.64	1332.72
514.842	1433.07
515.045	1437.16
515.248	1461.74
515.45	1007.09
515.653	1418.73
515.856	624.12
516.058	957.94
516.261	1592.81
516.464	798.2
516.666	816.63
516.869	1822.18
517.071	849.4
517.274	1392.11
517.477	439.8
517.679	1267.18
517.882	1615.34
518.084	1623.53
518.287	1510.89
518.489	2059.74
518.692	1601
518.894	1670.63
519.097	1005.04
519.299	1213.93
519.501	1990.11
519.704	2123.23
519.906	1574.38
520.109	2420.19
520.311	642.55
520.514	1514.98
520.716	980.47
520.918	1302
521.121	1924.58
521.323	1959.39
521.525	947.7
521.728	2524.63
521.93	1897.96
522.132	1770.98
522.335	1328.62
522.537	1693.16
522.739	1248.75
522.941	1693.16
523.144	1015.28
523.346	1684.97
523.548	925.17
523.75	1404.39
523.952	1033.71
524.155	1082.86
524.357	1123.82
524.559	1633.77
524.761	968.18
524.963	2176.48
525.165	802.29
525.368	1676.77
525.57	1330.67
525.772	1654.25
525.974	1320.43
526.176	1693.16
526.378	798.2
526.58	1717.73
526.782	1007.09
526.984	1463.79
527.186	957.94
527.388	804.34
527.59	886.26
527.792	1680.87
527.994	845.3
528.196	2196.96
528.398	816.63
528.6	1773.03
528.802	417.27
529.004	871.92
529.206	949.75
529.408	1813.99
529.609	1000.94
529.811	2082.27
530.013	1226.22
530.215	1695.21
530.417	1113.58
530.619	1218.03
530.821	1322.48
531.022	1269.23
531.224	1236.46
531.426	2653.66
531.628	1373.68
531.829	1863.14
532.031	1197.55
532.233	1551.85
532.435	1215.98
532.636	781.81
532.838	1406.44
533.04	1721.83
533.241	1146.35
533.443	2510.3
533.645	1560.04
533.846	1719.78
534.048	1723.88
534.25	1844.71
534.451	1500.65
534.653	1248.75
534.855	1447.4
535.056	2268.64
535.258	1201.65
535.459	2381.28
535.661	1068.53
535.862	1994.21
536.064	1199.6
536.265	1404.39
536.467	1338.86
536.668	1510.89
536.87	1424.87
537.071	2663.9
537.273	1508.84
537.474	2287.07
537.676	1961.44
537.877	1760.74
538.078	1345
538.28	1459.69
538.481	1396.2
538.683	2020.83
538.884	779.76
539.085	2319.84
539.287	1791.46
539.488	2321.88
539.689	1209.84
539.891	2041.31
540.092	1641.96
540.293	1691.11
540.495	1775.08
540.696	1553.9
540.897	1285.61
541.098	1897.96
541.3	1977.83
541.501	2184.67
541.702	2170.33
541.903	2227.68
542.104	1908.19
542.306	1596.9
542.507	1613.29
542.708	2813.4
542.909	1418.73
543.11	2649.56
543.311	708.09
543.512	1859.04
543.713	2356.7
543.915	1816.04
544.116	1682.92
544.317	2512.35
544.518	1631.72
544.719	2135.52
544.92	1482.22
545.121	1598.95
545.322	1539.56
545.523	2354.65
545.724	2065.89
545.925	1545.7
546.126	1783.27
546.327	2700.76
546.528	2123.23
546.729	2248.16
546.929	1953.25
547.13	2477.53
547.331	1308.14
547.532	2153.95
547.733	1674.73
547.934	1707.49
548.135	1580.52
548.336	2647.51
548.536	1803.75
548.737	3186.13
548.938	1945.06
549.139	2305.5
549.34	1736.17
549.54	2708.95
549.741	1854.95
549.942	1863.14
550.143	814.58
550.343	1832.42
550.544	2031.07
550.745	2962.9
550.945	1471.98
551.146	2014.69
551.347	1443.31
551.547	1969.63
551.748	1279.47
551.949	2219.49
552.149	1926.63
552.35	1355.24
552.551	1492.46
552.751	1273.32
552.952	970.23
553.152	1471.98
553.353	1060.34
553.553	1777.12
553.754	1490.41
553.954	1463.79
554.155	1031.66
554.356	1867.24
554.556	1566.18
554.756	1674.73
554.957	1922.53
555.157	1408.49
555.358	1719.78
555.558	1826.28
555.759	736.76
555.959	1263.08
556.159	1068.53
556.36	1555.94
556.56	1213.93
556.761	1646.05
556.961	1857
557.161	1754.6
557.362	1699.3
557.562	1758.69
557.762	1242.61
557.963	2229.73
558.163	951.79
558.363	1289.71
558.563	1232.37
558.764	1263.08
558.964	1080.82
559.164	1123.82
559.364	1244.65
559.565	1236.46
559.765	1578.47
559.965	1048.05
560.165	1498.6
560.365	1777.12
560.565	1195.5
560.766	2108.9
560.966	994.8
561.166	896.5
561.366	1125.87
561.566	1469.93
561.766	830.96
561.966	1275.37
562.166	1113.58
562.366	1521.13
562.566	1230.32
562.766	1058.29
562.966	804.34
563.166	1811.94
563.366	556.54
563.566	1437.16
563.766	1101.3
563.966	2098.66
564.166	1138.16
564.366	1695.21
564.566	1046
564.766	1695.21
564.966	769.52
565.166	1916.39
565.366	908.79
565.565	1232.37
565.765	577.02
565.965	898.55
566.165	390.65
566.365	1709.54
566.565	714.23
566.764	986.61
566.964	841.2
567.164	812.53
567.364	550.39
567.564	878.07
567.763	351.74
567.963	294.4
568.163	773.62
568.362	1107.44
568.562	466.42
568.762	1046
568.961	421.37
569.161	947.7
569.361	321.02
569.56	1426.92
569.76	589.3
569.96	824.82
570.159	525.82
570.359	820.72
570.558	636.41
570.758	833.01
570.958	390.65
571.157	742.9
571.357	495.1
571.556	482.81
571.756	468.47
571.955	974.32
572.155	286.2
572.354	1318.38
572.554	280.06
572.753	822.77
572.953	765.43
573.152	476.66
573.351	423.42
573.551	800.24
573.75	402.94
573.95	484.86
574.149	198.14
574.348	710.13
574.548	611.83
574.747	433.66
574.946	312.83
575.146	980.47
575.345	228.86
575.544	675.32
575.744	314.88
575.943	511.48
576.142	470.52
576.342	636.41
576.541	663.03
576.74	534.01
576.939	531.96
577.138	341.5
577.338	566.78
577.537	634.36
577.736	538.1
577.935	345.59
578.134	185.85
578.333	679.41
578.533	458.23
578.732	306.68
578.931	351.74
579.13	1207.79
579.329	169.47
579.528	1224.17
579.727	388.6
579.926	243.2
580.125	390.65
580.324	308.73
580.523	257.53
580.722	230.91
580.921	462.33
581.12	421.37
581.319	249.34
581.518	433.66
581.717	148.99
581.916	228.86
582.115	192
582.314	413.18
582.513	130.56
582.712	587.26
582.911	87.55
583.109	347.64
583.308	124.41
583.507	552.44
583.706	155.13
583.905	316.92
584.104	376.31
584.302	163.33
584.501	134.65
584.7	275.96
584.899	337.4
585.098	232.96
585.296	163.33
585.495	470.52
585.694	265.72
585.892	202.24
586.091	146.94
586.29	208.38
586.488	169.47
586.687	368.12
586.886	73.21
587.084	415.23
587.283	163.33
587.482	235
587.68	415.23
587.879	437.75
588.077	202.24
588.276	198.14
588.475	273.92
588.673	261.63
588.872	433.66
589.07	364.03
589.269	425.47
589.467	396.79
589.666	257.53
589.864	374.27
590.063	216.57
590.261	542.2
590.46	333.31
590.658	488.95
590.857	241.15
591.055	658.93
591.253	222.72
591.452	714.23
591.65	280.06
591.848	392.7
592.047	278.01
592.245	388.6
592.444	177.66
592.642	212.48
592.84	263.68
593.038	318.97
593.237	388.6
593.435	384.51
593.633	273.92
593.832	325.12
594.03	562.68
594.228	396.79
594.426	329.21
594.624	226.81
594.823	95.74
595.021	445.95
595.219	228.86
595.417	409.08
595.615	357.88
595.813	216.57
596.012	97.79
596.21	417.27
596.408	282.11
596.606	265.72
596.804	208.38
597.002	361.98
597.2	52.74
597.398	472.57
597.596	87.55
597.794	531.96
