Data from LSP62_S11_Subt4_17-10-21-104.txt Node
Date: Wed Aug 09 17:10:21 EDT 2023
User: Emmanuel
Spectrometer: USB4A00615
Scans to average: 1
Trigger mode: 1
Integration Time (sec): 1.300000E-2
Electric dark correction enabled: true
Boxcar width: 0
XAxis mode: Wavelengths
Number of Pixels in Spectrum: 3648
>>>>>Begin Spectral Data<<<<<
346.606	5.12
346.818	5.12
347.029	5.12
347.241	117.76
347.452	91.13
347.664	-19.46
347.876	-132.09
348.087	5.12
348.299	-44.03
348.51	-58.37
348.722	95.23
348.933	97.28
349.145	33.79
349.356	84.99
349.568	17.41
349.779	-103.42
349.991	23.55
350.202	27.65
350.414	-19.46
350.625	-78.85
350.836	60.42
351.048	-17.41
351.259	-31.74
351.471	-13.31
351.682	58.37
351.893	-15.36
352.105	62.46
352.316	-9.22
352.527	-58.37
352.739	15.36
352.95	31.74
353.161	-58.37
353.372	-5.12
353.584	68.61
353.795	-52.22
354.006	37.89
354.217	7.17
354.429	-7.17
354.64	-3.07
354.851	74.75
355.062	37.89
355.274	87.04
355.485	97.28
355.696	25.6
355.907	27.65
356.118	25.6
356.329	5.12
356.54	7.17
356.752	46.08
356.963	23.55
357.174	-58.37
357.385	29.7
357.596	72.7
357.807	-13.31
358.018	31.74
358.229	60.42
358.44	-66.56
358.651	17.41
358.862	-37.89
359.073	-37.89
359.284	37.89
359.495	9.22
359.706	15.36
359.917	-3.07
360.128	29.7
360.339	-7.17
360.55	-97.28
360.761	-9.22
360.972	-3.07
361.182	19.46
361.393	-33.79
361.604	58.37
361.815	-33.79
362.026	105.47
362.237	-29.7
362.447	52.22
362.658	-66.56
362.869	1.02
363.08	-3.07
363.291	56.32
363.501	31.74
363.712	-50.18
363.923	-21.5
364.134	-66.56
364.344	-72.7
364.555	-19.46
364.766	-1.02
364.976	-41.98
365.187	21.5
365.398	58.37
365.608	74.75
365.819	62.46
366.03	66.56
366.24	-78.85
366.451	-64.51
366.662	125.95
366.872	-64.51
367.083	95.23
367.293	37.89
367.504	68.61
367.714	7.17
367.925	128
368.135	-29.7
368.346	25.6
368.557	-62.46
368.767	-3.07
368.977	-15.36
369.188	54.27
369.398	68.61
369.609	27.65
369.819	-50.18
370.03	35.84
370.24	-60.42
370.451	-89.09
370.661	66.56
370.871	-70.65
371.082	41.98
371.292	-29.7
371.502	23.55
371.713	7.17
371.923	-17.41
372.133	-64.51
372.344	89.09
372.554	21.5
372.764	-60.42
372.975	31.74
373.185	-44.03
373.395	44.03
373.605	-29.7
373.816	84.99
374.026	25.6
374.236	-76.8
374.446	-37.89
374.656	-41.98
374.867	35.84
375.077	-17.41
375.287	46.08
375.497	-111.61
375.707	-25.6
375.917	35.84
376.127	82.94
376.338	125.95
376.548	41.98
376.758	48.13
376.968	-19.46
377.178	29.7
377.388	11.26
377.598	87.04
377.808	11.26
378.018	-23.55
378.228	87.04
378.438	-21.5
378.648	-11.26
378.858	-23.55
379.068	-17.41
379.278	80.89
379.488	-19.46
379.698	52.22
379.908	44.03
380.118	25.6
380.327	33.79
380.537	27.65
380.747	-13.31
380.957	48.13
381.167	72.7
381.377	-21.5
381.587	7.17
381.796	3.07
382.006	-41.98
382.216	-27.65
382.426	-50.18
382.636	13.31
382.845	27.65
383.055	17.41
383.265	-33.79
383.475	-84.99
383.684	-25.6
383.894	-52.22
384.104	138.24
384.313	37.89
384.523	-15.36
384.733	93.18
384.942	154.62
385.152	17.41
385.362	29.7
385.571	56.32
385.781	-123.9
385.991	-31.74
386.2	7.17
386.41	-15.36
386.619	-13.31
386.829	87.04
387.038	27.65
387.248	70.65
387.457	39.94
387.667	7.17
387.876	-17.41
388.086	13.31
388.295	52.22
388.505	27.65
388.714	125.95
388.924	50.18
389.133	33.79
389.343	68.61
389.552	21.5
389.762	-23.55
389.971	41.98
390.18	25.6
390.39	52.22
390.599	21.5
390.808	-54.27
391.018	21.5
391.227	44.03
391.436	-50.18
391.646	44.03
391.855	84.99
392.064	-56.32
392.274	50.18
392.483	-91.13
392.692	-62.46
392.901	-56.32
393.111	-21.5
393.32	-31.74
393.529	3.07
393.738	58.37
393.947	74.75
394.157	-9.22
394.366	-31.74
394.575	54.27
394.784	64.51
394.993	54.27
395.202	-5.12
395.411	60.42
395.62	125.95
395.83	185.34
396.039	119.81
396.248	93.18
396.457	99.33
396.666	111.61
396.875	236.54
397.084	128
397.293	80.89
397.502	138.24
397.711	121.85
397.92	164.86
398.129	13.31
398.338	109.57
398.547	78.85
398.756	23.55
398.965	136.19
399.174	-76.8
399.382	72.7
399.591	-13.31
399.8	13.31
400.009	50.18
400.218	87.04
400.427	-82.94
400.636	35.84
400.844	19.46
401.053	107.52
401.262	500.73
401.471	744.44
401.68	195.58
401.888	265.21
402.097	230.4
402.306	-58.37
402.515	142.33
402.723	-33.79
402.932	271.36
403.141	21.5
403.35	109.57
403.558	152.57
403.767	-19.46
403.976	64.51
404.184	125.95
404.393	150.53
404.602	80.89
404.81	201.72
405.019	697.33
405.227	304.12
405.436	205.82
405.645	138.24
405.853	136.19
406.062	60.42
406.27	99.33
406.479	13.31
406.687	-68.61
406.896	31.74
407.104	99.33
407.313	281.6
407.521	613.37
407.73	1661.93
407.938	1510.38
408.147	306.17
408.355	101.37
408.563	257.02
408.772	64.51
408.98	33.79
409.189	105.47
409.397	48.13
409.605	3.07
409.814	160.77
410.022	33.79
410.23	11.26
410.439	197.63
410.647	959.47
410.855	672.76
411.064	87.04
411.272	95.23
411.48	168.96
411.688	82.94
411.897	9.22
412.105	130.05
412.313	70.65
412.521	89.09
412.73	164.86
412.938	289.79
413.146	80.89
413.354	78.85
413.562	95.23
413.77	287.74
413.979	134.14
414.187	539.64
414.395	326.65
414.603	144.38
414.811	261.12
415.019	388.09
415.227	295.93
415.435	156.67
415.643	101.37
415.851	732.15
416.059	633.85
416.267	1594.34
416.475	2411.48
416.683	3498.95
416.891	1184.75
417.099	1281
417.307	2624.47
417.515	2479.07
417.723	670.71
417.931	726
418.139	1008.62
418.347	320.51
418.555	289.79
418.763	969.71
418.971	670.71
419.179	400.38
419.386	427
419.594	1440.75
419.802	1991.65
420.01	1176.56
420.218	2159.58
420.426	5655.47
420.633	4373.44
420.841	3920.84
421.049	2829.27
421.257	2716.63
421.464	1262.57
421.672	957.43
421.88	1123.31
422.088	1244.14
422.295	644.09
422.503	328.7
422.711	723.96
422.918	447.48
423.126	117.76
423.334	240.64
423.541	486.39
423.749	125.95
423.956	330.75
424.164	283.64
424.372	388.09
424.579	615.41
424.787	635.89
424.994	537.59
425.202	715.77
425.409	267.26
425.617	406.52
425.824	1238
426.032	666.61
426.239	1321.96
426.447	2112.48
426.654	3118.03
426.862	1958.88
427.069	3412.94
427.277	3818.44
427.484	4672.44
427.692	3097.55
427.899	2366.43
428.106	2593.75
428.314	1733.61
428.521	973.81
428.728	846.84
428.936	615.41
429.143	762.87
429.351	459.77
429.558	1797.09
429.765	2989.01
429.972	1414.12
430.18	879.6
430.387	4205.5
430.594	3490.76
430.801	2229.21
431.009	1860.58
431.216	869.36
431.423	777.2
431.63	209.92
431.838	363.51
432.045	437.24
432.252	801.78
432.459	334.84
432.666	324.6
432.873	883.7
433.081	1244.14
433.288	1070.06
433.495	775.16
433.702	2997.2
433.909	2032.61
434.116	1571.82
434.323	1219.57
434.53	1926.11
434.737	2939.86
434.944	2538.46
435.151	1493.99
435.358	1723.37
435.565	1326.06
435.772	539.64
435.979	371.71
436.186	1287.15
436.393	521.21
436.6	609.27
436.807	570.36
437.014	986.1
437.221	805.88
437.428	1012.72
437.635	510.97
437.841	1111.02
438.048	1530.86
438.255	470.01
438.462	492.54
438.669	1291.24
438.876	1074.16
439.082	685.05
439.289	697.33
439.496	1033.2
439.703	691.19
439.91	1295.34
440.116	1252.33
440.323	1799.14
440.53	1143.79
440.737	1252.33
440.943	1383.4
441.15	1985.51
441.357	2010.08
441.563	1045.49
441.77	504.82
441.977	1897.44
442.183	2092
442.39	1620.97
442.597	1813.48
442.803	1919.97
443.01	2010.08
443.216	1250.28
443.423	607.22
443.63	1594.34
443.836	2065.38
444.043	1881.06
444.249	818.16
444.456	1678.31
444.662	2067.42
444.869	1326.06
445.075	1315.82
445.282	1174.51
445.488	1313.77
445.695	2110.43
445.901	754.68
446.107	1555.43
446.314	1498.09
446.52	2472.92
446.727	1649.64
446.933	1217.52
447.139	1270.76
447.346	1600.49
447.552	1022.96
447.759	1035.25
447.965	982
448.171	1401.83
448.378	1805.28
448.584	2073.57
448.79	1424.36
448.996	1444.84
449.203	1502.19
449.409	1604.58
449.615	803.83
449.821	1207.28
450.028	1168.37
450.234	1121.26
450.44	1111.02
450.646	1352.68
450.852	1524.71
451.059	1272.81
451.265	1852.39
451.471	1592.3
451.677	2143.2
451.883	1330.16
452.089	797.68
452.295	777.2
452.502	754.68
452.708	1897.44
452.914	1041.39
453.12	1846.24
453.326	898.03
453.532	2288.61
453.738	836.6
453.944	646.13
454.15	529.4
454.356	2304.99
454.562	1498.09
454.768	986.1
454.974	654.33
455.18	1006.58
455.386	1170.41
455.592	785.4
455.798	551.93
456.003	588.79
456.209	758.77
456.415	654.33
456.621	777.2
456.827	875.51
457.033	736.24
457.239	801.78
457.444	222.2
457.65	615.41
457.856	441.34
458.062	926.71
458.268	482.3
458.473	814.07
458.679	674.81
458.885	1434.6
459.091	840.69
459.296	1356.78
459.502	308.22
459.708	1108.98
459.914	973.81
460.119	1938.4
460.325	535.54
460.531	603.13
460.736	1172.46
460.942	1074.16
461.147	830.45
461.353	920.56
461.559	424.95
461.764	1248.24
461.97	920.56
462.175	998.38
462.381	568.31
462.587	965.62
462.792	541.69
462.998	895.99
463.203	377.85
463.409	1653.73
463.614	1092.59
463.82	1344.49
464.025	953.33
464.231	1373.16
464.436	728.05
464.641	654.33
464.847	793.59
465.052	1100.78
465.258	396.28
465.463	1952.74
465.669	3349.45
465.874	2907.09
466.079	1813.48
466.285	1061.87
466.49	566.26
466.695	1334.25
466.901	938.99
467.106	1168.37
467.311	605.17
467.516	1381.35
467.722	1985.51
467.927	3369.93
468.132	1479.66
468.338	1309.68
468.543	883.7
468.748	971.76
468.953	723.96
469.158	2827.22
469.364	1717.22
469.569	1907.68
469.774	1192.94
469.979	1999.84
470.184	1209.33
470.389	1903.59
470.594	1250.28
470.8	2323.42
471.005	1471.47
471.21	2499.55
471.415	801.78
471.62	1743.85
471.825	1651.69
472.03	2024.42
472.235	1825.76
472.44	2081.76
472.645	1950.69
472.85	2108.38
473.055	2132.96
473.26	1899.49
473.465	973.81
473.67	1854.44
473.875	1696.74
474.08	2010.08
474.285	943.09
474.49	1922.02
474.695	1383.4
474.899	2261.98
475.104	2378.72
475.309	2712.53
475.514	1866.72
475.719	3458
475.924	2208.73
476.128	1879.01
476.333	2235.36
476.538	2309.08
476.743	824.31
476.948	2110.43
477.152	2315.23
477.357	2360.28
477.562	1502.19
477.767	1971.17
477.971	1803.24
478.176	1881.06
478.381	1375.21
478.585	2116.58
478.79	1082.35
478.995	2454.49
479.199	2081.76
479.404	1991.65
479.609	1430.51
479.813	2372.57
480.018	1772.52
480.223	3279.82
480.427	3308.49
480.632	2182.11
480.836	1123.31
481.041	2796.5
481.245	2407.39
481.45	2466.78
481.654	2126.82
481.859	1670.12
482.063	1551.34
482.268	2765.78
482.472	2753.49
482.677	2077.66
482.881	1997.79
483.086	1852.39
483.29	1831.91
483.495	2841.56
483.699	2870.23
483.903	4975.54
484.108	5446.57
484.312	4961.2
484.517	2993.11
484.721	2585.56
484.925	2278.37
485.13	2223.07
485.334	1356.78
485.538	2274.27
485.743	2358.24
485.947	2403.29
486.151	2079.71
486.355	1879.01
486.56	1747.94
486.764	2874.32
486.968	2149.34
487.172	1872.87
487.377	2182.11
487.581	1874.92
487.785	1379.31
487.989	3238.86
488.193	4713.4
488.397	4498.36
488.602	3132.37
488.806	2466.78
489.01	1856.48
489.214	2014.18
489.418	1649.64
489.622	1651.69
489.826	1164.27
490.03	2192.35
490.234	1965.03
490.438	2100.19
490.642	1747.94
490.846	1092.59
491.05	1014.77
491.254	1971.17
491.458	1403.88
491.662	2204.64
491.866	1151.98
492.07	1131.5
492.274	1096.69
492.478	2055.14
492.682	1276.91
492.886	2010.08
493.09	1143.79
493.294	885.75
493.498	949.23
493.701	1491.95
493.905	1252.33
494.109	1766.37
494.313	918.51
494.517	1315.82
494.721	1029.1
494.924	1524.71
495.128	1270.76
495.332	1977.31
495.536	1135.6
495.739	1080.3
495.943	918.51
496.147	1037.3
496.351	996.34
496.554	2098.14
496.758	785.4
496.962	680.95
497.165	578.55
497.369	1461.23
497.573	2073.57
497.776	3687.37
497.98	1594.34
498.184	1899.49
498.387	1913.83
498.591	1915.87
498.794	1225.71
498.998	1555.43
499.202	617.46
499.405	988.14
499.609	699.38
499.812	1180.65
500.016	2460.63
500.219	4637.63
500.423	1905.63
500.626	1659.88
500.83	1344.49
501.033	3025.87
501.237	2890.71
501.44	2946
501.643	1119.21
501.847	1264.62
502.05	721.91
502.254	1676.26
502.457	1602.54
502.66	2268.13
502.864	803.83
503.067	1082.35
503.271	1006.58
503.474	996.34
503.677	1377.26
503.88	1606.63
504.084	906.23
504.287	1291.24
504.49	1205.23
504.694	2819.03
504.897	5491.63
505.1	5497.77
505.303	2677.72
505.507	2202.59
505.71	1205.23
505.913	1704.93
506.116	805.88
506.319	2329.56
506.522	4633.53
506.726	3587.02
506.929	2280.41
507.132	2040.8
507.335	310.27
507.538	838.64
507.741	1729.51
507.944	977.91
508.147	1147.89
508.35	1799.14
508.553	832.5
508.756	1246.19
508.959	678.9
509.163	1162.22
509.366	951.28
509.569	2085.86
509.771	879.6
509.974	1559.53
510.177	1154.03
510.38	1729.51
510.583	1645.54
510.786	1672.17
510.989	1377.26
511.192	1463.27
511.395	642.04
511.598	961.52
511.801	740.34
512.004	1770.47
512.206	1469.42
512.409	2001.89
512.612	1096.69
512.815	1422.31
513.018	1197.04
513.22	1475.56
513.423	941.04
513.626	1418.22
513.829	1287.15
514.032	2333.66
514.234	1051.63
514.437	1172.46
514.64	1491.95
514.842	1491.95
515.045	1682.41
515.248	1883.11
515.45	1051.63
515.653	1588.2
515.856	850.93
516.058	1068.02
516.261	1684.45
516.464	850.93
516.666	961.52
516.869	1979.36
517.071	920.56
517.274	1524.71
517.477	873.46
517.679	1436.65
517.882	1975.27
518.084	1905.63
518.287	1620.97
518.489	2356.19
518.692	1661.93
518.894	1846.24
519.097	1121.26
519.299	1192.94
519.501	2395.1
519.704	2499.55
519.906	2327.52
520.109	2853.84
520.311	711.67
520.514	1860.58
520.716	1262.57
520.918	1258.48
521.121	2141.15
521.323	2264.03
521.525	1188.85
521.728	3193.81
521.93	3113.94
522.132	2229.21
522.335	1598.44
522.537	1938.4
522.739	1459.18
522.941	2067.42
523.144	1070.06
523.346	2018.27
523.548	1190.89
523.75	1926.11
523.952	1233.9
524.155	1248.24
524.357	1201.13
524.559	2016.23
524.761	1416.17
524.963	2421.72
525.165	1151.98
525.368	2061.28
525.57	1594.34
525.772	1913.83
525.974	1776.61
526.176	1709.03
526.378	1123.31
526.58	1797.09
526.782	1121.26
526.984	1678.31
527.186	1319.92
527.388	881.65
527.59	1115.12
527.792	1788.9
527.994	1018.86
528.196	2249.69
528.398	969.71
528.6	1950.69
528.802	472.06
529.004	1104.88
529.206	967.67
529.408	2075.62
529.609	1260.52
529.811	2292.7
530.013	1205.23
530.215	1727.46
530.417	1289.2
530.619	1330.16
530.821	1432.55
531.022	1471.47
531.224	1489.9
531.426	2958.29
531.628	1557.48
531.829	2178.01
532.031	1332.2
532.233	1500.14
532.435	1369.07
532.636	916.47
532.838	1489.9
533.04	2010.08
533.241	1389.55
533.443	2548.7
533.645	1879.01
533.846	1977.31
534.048	1678.31
534.25	2122.72
534.451	2137.06
534.653	1928.16
534.855	1606.63
535.056	2833.36
535.258	1383.4
535.459	2567.13
535.661	1233.9
535.862	1985.51
536.064	1317.87
536.265	1678.31
536.467	1321.96
536.668	1770.47
536.87	1500.14
537.071	2499.55
537.273	1895.4
537.474	2276.32
537.676	2309.08
537.877	1895.4
538.078	1457.13
538.28	1897.44
538.481	1655.78
538.683	2145.25
538.884	855.03
539.085	2722.77
539.287	1950.69
539.488	2323.42
539.689	1381.35
539.891	2323.42
540.092	1653.73
540.293	2018.27
540.495	1739.75
540.696	1616.87
540.897	1457.13
541.098	2155.49
541.3	2206.69
541.501	2468.83
541.702	2327.52
541.903	2472.92
542.104	2194.4
542.306	2036.7
542.507	1731.56
542.708	3365.84
542.909	1440.75
543.11	2917.33
543.311	818.16
543.512	1997.79
543.713	2391
543.915	2022.37
544.116	1924.07
544.317	2851.8
544.518	2030.56
544.719	2143.2
544.92	1565.67
545.121	1883.11
545.322	1666.02
545.523	2587.61
545.724	1889.25
545.925	1668.07
546.126	1836
546.327	3085.26
546.528	2190.3
546.729	2526.17
546.929	2069.47
547.13	2456.54
547.331	1444.84
547.532	2515.93
547.733	1639.4
547.934	2018.27
548.135	1879.01
548.336	2823.12
548.536	2569.18
548.737	3642.31
548.938	2243.55
549.139	2784.21
549.34	2083.81
549.54	3165.14
549.741	2063.33
549.942	1971.17
550.143	975.86
550.343	2335.71
550.544	2681.82
550.745	4037.57
550.945	2010.08
551.146	2077.66
551.347	1610.73
551.547	2145.25
551.748	1432.55
551.949	2427.87
552.149	1975.27
552.35	1643.49
552.551	1715.17
552.751	1526.76
552.952	1295.34
553.152	1745.89
553.353	1285.1
553.553	1987.55
553.754	1518.57
553.954	1774.56
554.155	1326.06
554.356	1901.54
554.556	1676.26
554.756	1743.85
554.957	1989.6
555.157	1469.42
555.358	1682.41
555.558	1829.86
555.759	1082.35
555.959	1551.34
556.159	1213.42
556.36	1625.06
556.56	1213.42
556.761	1840.1
556.961	1729.51
557.161	1858.53
557.362	1713.13
557.562	1934.31
557.762	1235.95
557.963	2608.09
558.163	1180.65
558.363	1676.26
558.563	1324.01
558.764	1444.84
558.964	1334.25
559.164	1287.15
559.364	1504.23
559.565	1442.79
559.765	1688.55
559.965	1262.57
560.165	1555.43
560.365	1831.91
560.565	1137.65
560.766	2517.98
560.966	1221.61
561.166	842.74
561.366	1518.57
561.566	1569.77
561.766	947.19
561.966	1420.27
562.166	1637.35
562.366	1817.57
562.566	1395.69
562.766	1338.35
562.966	904.18
563.166	1752.04
563.366	674.81
563.566	1473.51
563.766	1436.65
563.966	2851.8
564.166	1571.82
564.366	1647.59
564.566	1219.57
564.766	1926.11
564.966	771.06
565.166	1938.4
565.366	1104.88
565.565	1360.88
565.765	596.98
565.965	1100.78
566.165	611.32
566.365	1854.44
566.565	924.66
566.764	1385.45
566.964	961.52
567.164	1047.54
567.364	678.9
567.564	1151.98
567.763	465.91
567.963	435.19
568.163	1076.21
568.362	1369.07
568.562	590.84
568.762	1260.52
568.961	652.28
569.161	1135.6
569.361	152.57
569.56	1612.78
569.76	613.37
569.96	855.03
570.159	676.85
570.359	930.8
570.558	629.75
570.758	1076.21
570.958	443.39
571.157	1158.13
571.357	730.1
571.556	658.42
571.756	572.41
571.955	1111.02
572.155	431.1
572.354	1797.09
572.554	547.83
572.753	1037.3
572.953	1082.35
573.152	404.47
573.351	611.32
573.551	932.85
573.75	556.02
573.95	599.03
574.149	203.77
574.348	795.64
574.548	703.48
574.747	582.65
574.946	445.43
575.146	1078.26
575.345	330.75
575.544	803.83
575.744	377.85
575.943	619.51
576.142	654.33
576.342	719.86
576.541	752.63
576.74	674.81
576.939	535.54
577.138	363.51
577.338	515.06
577.537	719.86
577.736	508.92
577.935	488.44
578.134	193.53
578.333	818.16
578.533	433.15
578.732	676.85
578.931	312.32
579.13	1342.44
579.329	480.25
579.528	1600.49
579.727	609.27
579.926	478.2
580.125	674.81
580.324	400.38
580.523	353.27
580.722	390.14
580.921	457.72
581.12	470.01
581.319	177.15
581.518	427
581.717	232.44
581.916	214.01
582.115	228.35
582.314	398.33
582.513	187.39
582.712	560.12
582.911	113.66
583.109	558.07
583.308	150.53
583.507	525.3
583.706	181.25
583.905	371.71
584.104	478.2
584.302	240.64
584.501	138.24
584.7	269.31
584.899	250.88
585.098	281.6
585.296	144.38
585.495	459.77
585.694	334.84
585.892	173.05
586.091	246.78
586.29	287.74
586.488	138.24
586.687	457.72
586.886	123.9
587.084	523.26
587.283	191.49
587.482	365.56
587.68	449.53
587.879	607.22
588.077	150.53
588.276	281.6
588.475	322.56
588.673	365.56
588.872	455.67
589.07	410.62
589.269	424.95
589.467	513.02
589.666	338.94
589.864	513.02
590.063	390.14
590.261	513.02
590.46	394.23
590.658	623.61
590.857	230.4
591.055	709.62
591.253	412.67
591.452	619.51
591.65	201.72
591.848	338.94
592.047	242.68
592.245	437.24
592.444	205.82
592.642	306.17
592.84	386.04
593.038	377.85
593.237	562.17
593.435	705.53
593.633	519.16
593.832	445.43
594.03	678.9
594.228	494.58
594.426	427
594.624	308.22
594.823	140.29
595.021	502.78
595.219	334.84
595.417	527.35
595.615	359.42
595.813	322.56
596.012	238.59
596.21	381.95
596.408	269.31
596.606	275.45
