Data from LSP85_F7_Subt2_15-33-31-402.txt Node
Date: Tue Aug 22 15:33:31 EDT 2023
User: Emmanuel
Spectrometer: USB4A00615
Scans to average: 1
Trigger mode: 1
Integration Time (sec): 5.000000E-3
Electric dark correction enabled: true
Boxcar width: 0
XAxis mode: Wavelengths
Number of Pixels in Spectrum: 3648
>>>>>Begin Spectral Data<<<<<
346.606	27.65
346.818	27.65
347.029	27.65
347.241	68.61
347.452	5.12
347.664	-44.03
347.876	-23.55
348.087	-99.33
348.299	-5.12
348.51	35.84
348.722	-1.02
348.933	1.02
349.145	82.94
349.356	-5.12
349.568	1.02
349.779	56.32
349.991	1.02
350.202	-123.9
350.414	-5.12
350.625	-50.18
350.836	68.61
351.048	52.22
351.259	117.76
351.471	-31.74
351.682	-19.46
351.893	-19.46
352.105	-13.31
352.316	-23.55
352.527	68.61
352.739	-23.55
352.95	35.84
353.161	44.03
353.372	13.31
353.584	-74.75
353.795	-5.12
354.006	93.18
354.217	93.18
354.429	-97.28
354.64	111.61
354.851	25.6
355.062	15.36
355.274	130.05
355.485	125.95
355.696	-56.32
355.907	-7.17
356.118	68.61
356.329	-62.46
356.54	-27.65
356.752	29.7
356.963	-21.5
357.174	27.65
357.385	-5.12
357.596	113.66
357.807	50.18
358.018	62.46
358.229	68.61
358.44	-76.8
358.651	58.37
358.862	58.37
359.073	58.37
359.284	3.07
359.495	5.12
359.706	23.55
359.917	105.47
360.128	52.22
360.339	3.07
360.55	-11.26
360.761	-5.12
360.972	15.36
361.182	27.65
361.393	37.89
361.604	84.99
361.815	-19.46
362.026	-119.81
362.237	-58.37
362.447	105.47
362.658	-11.26
362.869	-29.7
363.08	35.84
363.291	-82.94
363.501	-56.32
363.712	117.76
363.923	7.17
364.134	76.8
364.344	154.62
364.555	60.42
364.766	64.51
364.976	19.46
365.187	-121.85
365.398	-37.89
365.608	-37.89
365.819	19.46
366.03	41.98
366.24	-9.22
366.451	68.61
366.662	-9.22
366.872	-103.42
367.083	37.89
367.293	-13.31
367.504	23.55
367.714	-1.02
367.925	74.75
368.135	31.74
368.346	70.65
368.557	31.74
368.767	-23.55
368.977	82.94
369.188	7.17
369.398	-25.6
369.609	70.65
369.819	3.07
370.03	39.94
370.24	-35.84
370.451	130.05
370.661	50.18
370.871	-41.98
371.082	-1.02
371.292	80.89
371.502	31.74
371.713	39.94
371.923	111.61
372.133	50.18
372.344	-11.26
372.554	21.5
372.764	7.17
372.975	-25.6
373.185	-103.42
373.395	-27.65
373.605	-5.12
373.816	1.02
374.026	-15.36
374.236	-17.41
374.446	27.65
374.656	52.22
374.867	-62.46
375.077	33.79
375.287	13.31
375.497	9.22
375.707	56.32
375.917	-82.94
376.127	58.37
376.338	74.75
376.548	-29.7
376.758	9.22
376.968	-13.31
377.178	-27.65
377.388	-31.74
377.598	44.03
377.808	-7.17
378.018	21.5
378.228	-91.13
378.438	25.6
378.648	-121.85
378.858	103.42
379.068	-11.26
379.278	-13.31
379.488	103.42
379.698	-66.56
379.908	72.7
380.118	-33.79
380.327	66.56
380.537	23.55
380.747	134.14
380.957	-72.7
381.167	-37.89
381.377	33.79
381.587	181.25
381.796	76.8
382.006	87.04
382.216	74.75
382.426	46.08
382.636	-21.5
382.845	-17.41
383.055	-37.89
383.265	68.61
383.475	29.7
383.684	3.07
383.894	44.03
384.104	33.79
384.313	-5.12
384.523	-7.17
384.733	87.04
384.942	70.65
385.152	-35.84
385.362	78.85
385.571	-1.02
385.781	107.52
385.991	-33.79
386.2	62.46
386.41	72.7
386.619	-25.6
386.829	50.18
387.038	-44.03
387.248	37.89
387.457	-46.08
387.667	95.23
387.876	35.84
388.086	15.36
388.295	35.84
388.505	156.67
388.714	29.7
388.924	-17.41
389.133	37.89
389.343	21.5
389.552	35.84
389.762	80.89
389.971	23.55
390.18	35.84
390.39	-31.74
390.599	37.89
390.808	62.46
391.018	70.65
391.227	29.7
391.436	11.26
391.646	66.56
391.855	84.99
392.064	9.22
392.274	17.41
392.483	87.04
392.692	29.7
392.901	-23.55
393.111	-95.23
393.32	44.03
393.529	23.55
393.738	-33.79
393.947	-29.7
394.157	111.61
394.366	-25.6
394.575	-37.89
394.784	5.12
394.993	25.6
395.202	44.03
395.411	13.31
395.62	68.61
395.83	27.65
396.039	-48.13
396.248	-119.81
396.457	-25.6
396.666	-31.74
396.875	11.26
397.084	33.79
397.293	-39.94
397.502	72.7
397.711	60.42
397.92	103.42
398.129	-50.18
398.338	-44.03
398.547	21.5
398.756	58.37
398.965	41.98
399.174	27.65
399.382	41.98
399.591	107.52
399.8	56.32
400.009	27.65
400.218	101.37
400.427	-15.36
400.636	68.61
400.844	35.84
401.053	-15.36
401.262	5.12
401.471	-1.02
401.68	23.55
401.888	39.94
402.097	-13.31
402.306	103.42
402.515	121.85
402.723	99.33
402.932	-31.74
403.141	13.31
403.35	44.03
403.558	-3.07
403.767	175.1
403.976	-60.42
404.184	121.85
404.393	132.09
404.602	66.56
404.81	-78.85
405.019	-48.13
405.227	-15.36
405.436	33.79
405.645	35.84
405.853	78.85
406.062	80.89
406.27	33.79
406.479	37.89
406.687	-31.74
406.896	-19.46
407.104	29.7
407.313	3.07
407.521	-25.6
407.73	33.79
407.938	-9.22
408.147	-13.31
408.355	58.37
408.563	7.17
408.772	-29.7
408.98	-25.6
409.189	128
409.397	-66.56
409.605	50.18
409.814	70.65
410.022	39.94
410.23	11.26
410.439	70.65
410.647	-50.18
410.855	-37.89
411.064	-93.18
411.272	29.7
411.48	54.27
411.688	-29.7
411.897	162.81
412.105	84.99
412.313	-9.22
412.521	-23.55
412.73	-13.31
412.938	-35.84
413.146	9.22
413.354	-109.57
413.562	-50.18
413.77	21.5
413.979	-46.08
414.187	-5.12
414.395	52.22
414.603	-1.02
414.811	54.27
415.019	-21.5
415.227	93.18
415.435	64.51
415.643	-39.94
415.851	-33.79
416.059	68.61
416.267	-93.18
416.475	39.94
416.683	19.46
416.891	72.7
417.099	17.41
417.307	68.61
417.515	-1.02
417.723	74.75
417.931	-17.41
418.139	9.22
418.347	-5.12
418.555	-60.42
418.763	84.99
418.971	-46.08
419.179	-146.43
419.386	125.95
419.594	-9.22
419.802	68.61
420.01	9.22
420.218	44.03
420.426	-41.98
420.633	66.56
420.841	60.42
421.049	-7.17
421.257	105.47
421.464	62.46
421.672	142.33
421.88	-48.13
422.088	82.94
422.295	23.55
422.503	87.04
422.711	27.65
422.918	7.17
423.126	68.61
423.334	-17.41
423.541	89.09
423.749	-35.84
423.956	60.42
424.164	-9.22
424.372	95.23
424.579	29.7
424.787	66.56
424.994	-25.6
425.202	52.22
425.409	48.13
425.617	-52.22
425.824	41.98
426.032	68.61
426.239	-78.85
426.447	33.79
426.654	29.7
426.862	58.37
427.069	-33.79
427.277	62.46
427.484	-1.02
427.692	89.09
427.899	76.8
428.106	-1.02
428.314	-119.81
428.521	-11.26
428.728	132.09
428.936	41.98
429.143	132.09
429.351	1.02
429.558	15.36
429.765	52.22
429.972	25.6
430.18	-41.98
430.387	-1.02
430.594	-9.22
430.801	17.41
431.009	-29.7
431.216	-23.55
431.423	-39.94
431.63	-56.32
431.838	52.22
432.045	72.7
432.252	138.24
432.459	-7.17
432.666	19.46
432.873	31.74
433.081	-23.55
433.288	37.89
433.495	144.38
433.702	41.98
433.909	91.13
434.116	91.13
434.323	50.18
434.53	82.94
434.737	52.22
434.944	-5.12
435.151	64.51
435.358	31.74
435.565	119.81
435.772	93.18
435.979	52.22
436.186	89.09
436.393	-41.98
436.6	78.85
436.807	-46.08
437.014	23.55
437.221	95.23
437.428	-3.07
437.635	17.41
437.841	48.13
438.048	-41.98
438.255	-44.03
438.462	74.75
438.669	-11.26
438.876	52.22
439.082	7.17
439.289	37.89
439.496	72.7
439.703	9.22
439.91	-60.42
440.116	76.8
440.323	50.18
440.53	78.85
440.737	27.65
440.943	17.41
441.15	7.17
441.357	109.57
441.563	-37.89
441.77	19.46
441.977	62.46
442.183	68.61
442.39	48.13
442.597	-56.32
442.803	121.85
443.01	-3.07
443.216	23.55
443.423	23.55
443.63	21.5
443.836	7.17
444.043	138.24
444.249	-1.02
444.456	-13.31
444.662	74.75
444.869	54.27
445.075	17.41
445.282	15.36
445.488	25.6
445.695	33.79
445.901	-54.27
446.107	-11.26
446.314	7.17
446.52	72.7
446.727	152.57
446.933	48.13
447.139	54.27
447.346	33.79
447.552	-39.94
447.759	31.74
447.965	-9.22
448.171	-3.07
448.378	125.95
448.584	-70.65
448.79	37.89
448.996	56.32
449.203	-9.22
449.409	-7.17
449.615	48.13
449.821	31.74
450.028	58.37
450.234	-31.74
450.44	29.7
450.646	27.65
450.852	-35.84
451.059	74.75
451.265	9.22
451.471	-13.31
451.677	-31.74
451.883	21.5
452.089	201.72
452.295	84.99
452.502	50.18
452.708	19.46
452.914	125.95
453.12	25.6
453.326	60.42
453.532	-15.36
453.738	11.26
453.944	97.28
454.15	33.79
454.356	-31.74
454.562	-5.12
454.768	111.61
454.974	19.46
455.18	-31.74
455.386	-5.12
455.592	-72.7
455.798	21.5
456.003	48.13
456.209	13.31
456.415	-5.12
456.621	197.63
456.827	-23.55
457.033	41.98
457.239	103.42
457.444	95.23
457.65	68.61
457.856	5.12
458.062	84.99
458.268	-21.5
458.473	66.56
458.679	166.91
458.885	144.38
459.091	-62.46
459.296	-80.89
459.502	99.33
459.708	-37.89
459.914	87.04
460.119	109.57
460.325	44.03
460.531	19.46
460.736	56.32
460.942	-91.13
461.147	111.61
461.353	80.89
461.559	-66.56
461.764	13.31
461.97	9.22
462.175	9.22
462.381	87.04
462.587	78.85
462.792	64.51
462.998	-33.79
463.203	41.98
463.409	-13.31
463.614	1.02
463.82	33.79
464.025	62.46
464.231	-3.07
464.436	21.5
464.641	-121.85
464.847	82.94
465.052	84.99
465.258	54.27
465.463	54.27
465.669	9.22
465.874	13.31
466.079	160.77
466.285	68.61
466.49	39.94
466.695	25.6
466.901	54.27
467.106	-7.17
467.311	13.31
467.516	-1.02
467.722	31.74
467.927	-41.98
468.132	64.51
468.338	74.75
468.543	58.37
468.748	5.12
468.953	101.37
469.158	52.22
469.364	1.02
469.569	-29.7
469.774	50.18
469.979	66.56
470.184	60.42
470.389	103.42
470.594	1.02
470.8	95.23
471.005	19.46
471.21	-15.36
471.415	62.46
471.62	31.74
471.825	46.08
472.03	19.46
472.235	33.79
472.44	-7.17
472.645	62.46
472.85	-93.18
473.055	-17.41
473.26	48.13
473.465	64.51
473.67	11.26
473.875	117.76
474.08	121.85
474.285	82.94
474.49	-91.13
474.695	66.56
474.899	-9.22
475.104	37.89
475.309	17.41
475.514	5.12
475.719	-27.65
475.924	27.65
476.128	25.6
476.333	93.18
476.538	-72.7
476.743	13.31
476.948	-64.51
477.152	29.7
477.357	58.37
477.562	17.41
477.767	-9.22
477.971	50.18
478.176	150.53
478.381	93.18
478.585	54.27
478.79	15.36
478.995	97.28
479.199	39.94
479.404	1.02
479.609	89.09
479.813	-17.41
480.018	78.85
480.223	97.28
480.427	54.27
480.632	33.79
480.836	70.65
481.041	134.14
481.245	148.48
481.45	-17.41
481.654	-7.17
481.859	-13.31
482.063	-11.26
482.268	203.77
482.472	-17.41
482.677	91.13
482.881	101.37
483.086	25.6
483.29	-3.07
483.495	-17.41
483.699	113.66
483.903	154.62
484.108	84.99
484.312	-46.08
484.517	103.42
484.721	27.65
484.925	78.85
485.13	-7.17
485.334	50.18
485.538	130.05
485.743	35.84
485.947	123.9
486.151	164.86
486.355	-46.08
486.56	-3.07
486.764	21.5
486.968	95.23
487.172	-33.79
487.377	125.95
487.581	216.06
487.785	25.6
487.989	128
488.193	82.94
488.397	74.75
488.602	107.52
488.806	140.29
489.01	68.61
489.214	37.89
489.418	158.72
489.622	130.05
489.826	62.46
490.03	44.03
490.234	119.81
490.438	5.12
490.642	82.94
490.846	84.99
491.05	39.94
491.254	17.41
491.458	-25.6
491.662	244.73
491.866	-17.41
492.07	56.32
492.274	82.94
492.478	54.27
492.682	95.23
492.886	23.55
493.09	37.89
493.294	48.13
493.498	7.17
493.701	48.13
493.905	84.99
494.109	115.71
494.313	111.61
494.517	150.53
494.721	15.36
494.924	91.13
495.128	17.41
495.332	29.7
495.536	105.47
495.739	27.65
495.943	84.99
496.147	84.99
496.351	-31.74
496.554	175.1
496.758	56.32
496.962	33.79
497.165	-11.26
497.369	41.98
497.573	95.23
497.776	130.05
497.98	101.37
498.184	185.34
498.387	109.57
498.591	56.32
498.794	107.52
498.998	154.62
499.202	76.8
499.405	134.14
499.609	21.5
499.812	64.51
500.016	91.13
500.219	78.85
500.423	9.22
500.626	263.16
500.83	113.66
501.033	148.48
501.237	119.81
501.44	297.98
501.643	232.44
501.847	224.25
502.05	115.71
502.254	107.52
502.457	142.33
502.66	68.61
502.864	-13.31
503.067	134.14
503.271	3.07
503.474	87.04
503.677	-7.17
503.88	130.05
504.084	-23.55
504.287	-82.94
504.49	60.42
504.694	105.47
504.897	62.46
505.1	95.23
505.303	164.86
505.507	805.88
505.71	181.25
505.913	220.16
506.116	80.89
506.319	128
506.522	113.66
506.726	138.24
506.929	146.43
507.132	680.95
507.335	283.64
507.538	136.19
507.741	125.95
507.944	146.43
508.147	64.51
508.35	113.66
508.553	115.71
508.756	-23.55
508.959	152.57
509.163	76.8
509.366	31.74
509.569	111.61
509.771	-35.84
509.974	-15.36
510.177	54.27
510.38	17.41
510.583	21.5
510.786	136.19
510.989	91.13
511.192	142.33
511.395	-5.12
511.598	-70.65
511.801	15.36
512.004	25.6
512.206	9.22
512.409	119.81
512.612	50.18
512.815	97.28
513.018	107.52
513.22	130.05
513.423	68.61
513.626	58.37
513.829	82.94
514.032	72.7
514.234	-13.31
514.437	107.52
514.64	54.27
514.842	72.7
515.045	140.29
515.248	68.61
515.45	113.66
515.653	89.09
515.856	76.8
516.058	152.57
516.261	39.94
516.464	-15.36
516.666	-9.22
516.869	3.07
517.071	119.81
517.274	58.37
517.477	35.84
517.679	39.94
517.882	-21.5
518.084	89.09
518.287	31.74
518.489	58.37
518.692	216.06
518.894	179.2
519.097	140.29
519.299	46.08
519.501	62.46
519.704	66.56
519.906	109.57
520.109	138.24
520.311	-89.09
520.514	197.63
520.716	101.37
520.918	134.14
521.121	23.55
521.323	56.32
521.525	58.37
521.728	160.77
521.93	11.26
522.132	166.91
522.335	611.32
522.537	463.86
522.739	-5.12
522.941	119.81
523.144	52.22
523.346	64.51
523.548	80.89
523.75	74.75
523.952	82.94
524.155	27.65
524.357	60.42
524.559	72.7
524.761	130.05
524.963	97.28
525.165	46.08
525.368	-15.36
525.57	39.94
525.772	50.18
525.974	-13.31
526.176	105.47
526.378	41.98
526.58	140.29
526.782	158.72
526.984	9.22
527.186	-52.22
527.388	-29.7
527.59	19.46
527.792	35.84
527.994	111.61
528.196	78.85
528.398	95.23
528.6	150.53
528.802	187.39
529.004	23.55
529.206	31.74
529.408	72.7
529.609	15.36
529.811	9.22
530.013	44.03
530.215	117.76
530.417	1.02
530.619	46.08
530.821	11.26
531.022	23.55
531.224	64.51
531.426	21.5
531.628	7.17
531.829	41.98
532.031	11.26
532.233	-13.31
532.435	44.03
532.636	52.22
532.838	33.79
533.04	89.09
533.241	19.46
533.443	44.03
533.645	54.27
533.846	111.61
534.048	-25.6
534.25	121.85
534.451	48.13
534.653	13.31
534.855	-25.6
535.056	89.09
535.258	-7.17
535.459	82.94
535.661	74.75
535.862	74.75
536.064	-25.6
536.265	76.8
536.467	23.55
536.668	-15.36
536.87	46.08
537.071	27.65
537.273	82.94
537.474	27.65
537.676	52.22
537.877	-21.5
538.078	15.36
538.28	15.36
538.481	3.07
538.683	87.04
538.884	3.07
539.085	-21.5
539.287	15.36
539.488	150.53
539.689	-5.12
539.891	132.09
540.092	56.32
540.293	17.41
540.495	80.89
540.696	121.85
540.897	56.32
541.098	48.13
541.3	-54.27
541.501	11.26
541.702	-35.84
541.903	23.55
542.104	72.7
542.306	-84.99
542.507	130.05
542.708	70.65
542.909	97.28
543.11	150.53
543.311	80.89
543.512	56.32
543.713	-80.89
543.915	11.26
544.116	3.07
544.317	74.75
544.518	27.65
544.719	35.84
544.92	103.42
545.121	152.57
545.322	183.29
545.523	78.85
545.724	76.8
545.925	74.75
546.126	46.08
546.327	164.86
546.528	115.71
546.729	9.22
546.929	48.13
547.13	76.8
547.331	58.37
547.532	123.9
547.733	93.18
547.934	70.65
548.135	-46.08
548.336	50.18
548.536	-72.7
548.737	21.5
548.938	52.22
549.139	78.85
549.34	97.28
549.54	58.37
549.741	78.85
549.942	19.46
550.143	-78.85
550.343	46.08
550.544	-62.46
550.745	21.5
550.945	35.84
551.146	72.7
551.347	138.24
551.547	23.55
551.748	97.28
551.949	44.03
552.149	54.27
552.35	48.13
552.551	52.22
552.751	121.85
552.952	52.22
553.152	15.36
553.353	107.52
553.553	27.65
553.754	-54.27
553.954	-46.08
554.155	39.94
554.356	-11.26
554.556	70.65
554.756	72.7
554.957	29.7
555.157	113.66
555.358	134.14
555.558	35.84
555.759	64.51
555.959	50.18
556.159	50.18
556.36	11.26
556.56	58.37
556.761	80.89
556.961	76.8
557.161	95.23
557.362	82.94
557.562	64.51
557.762	-33.79
557.963	60.42
558.163	64.51
558.363	-39.94
558.563	72.7
558.764	99.33
558.964	-46.08
559.164	-21.5
559.364	46.08
559.565	11.26
559.765	29.7
559.965	107.52
560.165	82.94
560.365	136.19
560.565	93.18
560.766	97.28
560.966	54.27
561.166	19.46
561.366	39.94
561.566	60.42
561.766	-15.36
561.966	41.98
562.166	113.66
562.366	60.42
562.566	19.46
562.766	-97.28
562.966	31.74
563.166	58.37
563.366	11.26
563.566	78.85
563.766	44.03
563.966	52.22
564.166	41.98
564.366	359.42
564.566	25.6
564.766	158.72
564.966	35.84
565.166	146.43
565.366	19.46
565.565	-27.65
565.765	-17.41
565.965	60.42
566.165	11.26
566.365	33.79
566.565	17.41
566.764	35.84
566.964	-78.85
567.164	138.24
567.364	115.71
567.564	76.8
567.763	-37.89
567.963	3.07
568.163	109.57
568.362	-17.41
568.562	99.33
568.762	13.31
568.961	82.94
569.161	97.28
569.361	72.7
569.56	54.27
569.76	21.5
569.96	-64.51
570.159	17.41
570.359	9.22
570.558	156.67
570.758	19.46
570.958	-44.03
571.157	19.46
571.357	66.56
571.556	91.13
571.756	134.14
571.955	134.14
572.155	39.94
572.354	160.77
572.554	64.51
572.753	107.52
572.953	-31.74
573.152	35.84
573.351	-33.79
573.551	99.33
573.75	9.22
573.95	62.46
574.149	158.72
574.348	76.8
574.548	84.99
574.747	119.81
574.946	5.12
575.146	41.98
575.345	21.5
575.544	-9.22
575.744	132.09
575.943	62.46
576.142	19.46
576.342	128
576.541	134.14
576.74	52.22
576.939	-29.7
577.138	9.22
577.338	105.47
577.537	111.61
577.736	3.07
577.935	13.31
578.134	19.46
578.333	109.57
578.533	48.13
578.732	17.41
578.931	-89.09
579.13	33.79
579.329	78.85
579.528	31.74
579.727	-19.46
579.926	89.09
580.125	60.42
580.324	113.66
580.523	-33.79
580.722	-54.27
580.921	1.02
581.12	-7.17
581.319	19.46
581.518	142.33
581.717	-56.32
581.916	-25.6
582.115	-119.81
582.314	-25.6
582.513	132.09
582.712	33.79
582.911	152.57
583.109	-15.36
583.308	-23.55
583.507	-60.42
583.706	-91.13
583.905	99.33
584.104	-23.55
584.302	138.24
584.501	-105.47
584.7	62.46
584.899	76.8
585.098	56.32
585.296	25.6
585.495	7.17
585.694	-5.12
585.892	33.79
586.091	50.18
586.29	78.85
586.488	72.7
586.687	25.6
586.886	21.5
587.084	-5.12
587.283	95.23
587.482	27.65
587.68	56.32
587.879	-25.6
588.077	60.42
588.276	56.32
588.475	54.27
588.673	56.32
588.872	93.18
589.07	-78.85
589.269	97.28
589.467	111.61
589.666	37.89
589.864	5.12
590.063	23.55
590.261	46.08
590.46	-64.51
590.658	52.22
590.857	-62.46
591.055	13.31
591.253	117.76
591.452	39.94
591.65	-46.08
591.848	29.7
592.047	80.89
592.245	23.55
592.444	64.51
592.642	48.13
592.84	50.18
593.038	41.98
593.237	-19.46
593.435	134.14
593.633	-50.18
593.832	52.22
594.03	140.29
594.228	87.04
594.426	15.36
594.624	-95.23
594.823	27.65
595.021	-37.89
595.219	70.65
595.417	15.36
595.615	74.75
595.813	-50.18
596.012	31.74
596.21	68.61
596.408	7.17
596.606	-23.55
596.804	93.18
597.002	27.65
597.2	25.6
597.398	-44.03
597.596	-74.75
597.794	82.94
597.992	62.46
598.19	9.22
598.388	66.56
598.586	105.47
598.784	136.19
598.982	-1.02
599.18	-56.32
599.378	111.61
599.576	-58.37
599.774	17.41
599.972	19.46
600.17	-37.89
600.368	44.03
600.565	-21.5
600.763	39.94
600.961	44.03
601.159	-17.41
601.357	17.41
601.555	60.42
601.752	-41.98
601.95	62.46
602.148	128
602.346	-19.46
602.544	-9.22
602.741	-54.27
602.939	19.46
603.137	-9.22
603.334	64.51
603.532	33.79
603.73	15.36
603.927	113.66
604.125	-89.09
604.323	-50.18
604.52	142.33
604.718	76.8
604.916	60.42
605.113	33.79
605.311	113.66
605.508	76.8
605.706	21.5
605.904	-5.12
606.101	-5.12
606.299	-31.74
606.496	89.09
606.694	-21.5
606.891	-27.65
607.089	76.8
607.286	74.75
607.484	41.98
607.681	-128
607.879	115.71
608.076	-11.26
608.273	-5.12
608.471	7.17
608.668	27.65
608.866	72.7
609.063	115.71
609.26	68.61
609.458	89.09
609.655	89.09
609.852	31.74
610.05	48.13
610.247	-21.5
610.444	68.61
610.642	-11.26
610.839	-50.18
611.036	48.13
611.233	27.65
611.431	13.31
611.628	29.7
611.825	11.26
612.022	25.6
612.22	29.7
612.417	-5.12
