Data from LSP83_F5_Subt2_14-17-05-565.txt Node
Date: Tue Aug 22 14:17:05 EDT 2023
User: Emmanuel
Spectrometer: USB4A00615
Scans to average: 1
Trigger mode: 1
Integration Time (sec): 5.000000E-3
Electric dark correction enabled: true
Boxcar width: 0
XAxis mode: Wavelengths
Number of Pixels in Spectrum: 3648
>>>>>Begin Spectral Data<<<<<
346.606	-204.11
346.818	-204.11
347.029	-204.11
347.241	-17.75
347.452	88.75
347.664	19.11
347.876	27.31
348.087	-111.96
348.299	-75.09
348.51	90.79
348.722	-50.52
348.933	49.83
349.145	58.03
349.356	49.83
349.568	-23.89
349.779	-7.51
349.991	-25.94
350.202	-1.37
350.414	-146.77
350.625	-50.52
350.836	55.98
351.048	70.31
351.259	-32.08
351.471	-13.65
351.682	64.17
351.893	47.79
352.105	-44.37
352.316	2.73
352.527	-116.05
352.739	88.75
352.95	47.79
353.161	-42.32
353.372	-89.43
353.584	-91.48
353.795	123.56
354.006	-1.37
354.217	-34.13
354.429	-48.47
354.64	-17.75
354.851	-19.8
355.062	8.87
355.274	64.17
355.485	51.88
355.696	98.99
355.907	72.36
356.118	64.17
356.329	49.83
356.54	4.78
356.752	-3.41
356.963	-132.44
357.174	62.12
357.385	72.36
357.596	29.35
357.807	-38.23
358.018	58.03
358.229	109.22
358.44	82.6
358.651	55.98
358.862	-23.89
359.073	-1.37
359.284	51.88
359.495	51.88
359.706	2.73
359.917	-60.76
360.128	6.83
360.339	-75.09
360.55	-66.9
360.761	-19.8
360.972	-27.99
361.182	4.78
361.393	-81.24
361.604	-13.65
361.815	-75.09
362.026	-105.81
362.237	4.78
362.447	33.45
362.658	-83.28
362.869	0.68
363.08	45.74
363.291	23.21
363.501	12.97
363.712	21.16
363.923	-83.28
364.134	-66.9
364.344	47.79
364.555	-34.13
364.766	107.18
364.976	-64.85
365.187	-23.89
365.398	78.51
365.608	-79.19
365.819	55.98
366.03	-30.04
366.24	60.07
366.451	-21.84
366.662	-48.47
366.872	-58.71
367.083	-66.9
367.293	-87.38
367.504	-101.72
367.714	17.07
367.925	-52.56
368.135	-19.8
368.346	31.4
368.557	8.87
368.767	-21.84
368.977	-44.37
369.188	-62.8
369.398	21.16
369.609	35.5
369.819	-54.61
370.03	94.89
370.24	68.27
370.451	2.73
370.661	21.16
370.871	82.6
371.082	-7.51
371.292	49.83
371.502	35.5
371.713	45.74
371.923	-52.56
372.133	90.79
372.344	35.5
372.554	103.08
372.764	-5.46
372.975	51.88
373.185	-11.61
373.395	58.03
373.605	-54.61
373.816	72.36
374.026	-15.7
374.236	25.26
374.446	66.22
374.656	-9.56
374.867	72.36
375.077	-7.51
375.287	-9.56
375.497	66.22
375.707	-73.04
375.917	-58.71
376.127	-73.04
376.338	-46.42
376.548	4.78
376.758	86.7
376.968	-77.14
377.178	125.61
377.388	8.87
377.598	2.73
377.808	-15.7
378.018	-7.51
378.228	-11.61
378.438	45.74
378.648	94.89
378.858	88.75
379.068	-126.29
379.278	-34.13
379.488	88.75
379.698	-77.14
379.908	-3.41
380.118	25.26
380.327	-9.56
380.537	-75.09
380.747	51.88
380.957	-48.47
381.167	80.55
381.377	70.31
381.587	6.83
381.796	-85.33
382.006	23.21
382.216	-32.08
382.426	-101.72
382.636	33.45
382.845	-3.41
383.055	2.73
383.265	-23.89
383.475	-9.56
383.684	23.21
383.894	-56.66
384.104	-3.41
384.313	-48.47
384.523	31.4
384.733	10.92
384.942	84.65
385.152	-36.18
385.362	47.79
385.571	-27.99
385.781	-46.42
385.991	47.79
386.2	45.74
386.41	-64.85
386.619	41.64
386.829	-60.76
387.038	-42.32
387.248	-7.51
387.457	58.03
387.667	4.78
387.876	-46.42
388.086	12.97
388.295	33.45
388.505	-32.08
388.714	-1.37
388.924	0.68
389.133	4.78
389.343	-60.76
389.552	-17.75
389.762	33.45
389.971	-93.52
390.18	0.68
390.39	53.93
390.599	49.83
390.808	-27.99
391.018	119.46
391.227	12.97
391.436	10.92
391.646	-27.99
391.855	19.11
392.064	-25.94
392.274	-1.37
392.483	10.92
392.692	-81.24
392.901	45.74
393.111	-30.04
393.32	60.07
393.529	60.07
393.738	-7.51
393.947	37.55
394.157	4.78
394.366	-89.43
394.575	-32.08
394.784	-50.52
394.993	62.12
395.202	129.7
395.411	103.08
395.62	6.83
395.83	-50.52
396.039	41.64
396.248	64.17
396.457	37.55
396.666	4.78
396.875	92.84
397.084	31.4
397.293	98.99
397.502	78.51
397.711	-17.75
397.92	-58.71
398.129	-89.43
398.338	-36.18
398.547	-114
398.756	76.46
398.965	-73.04
399.174	72.36
399.382	41.64
399.591	-48.47
399.8	121.51
400.009	-79.19
400.218	-9.56
400.427	-5.46
400.636	29.35
400.844	55.98
401.053	127.66
401.262	-3.41
401.471	29.35
401.68	-1.37
401.888	92.84
402.097	0.68
402.306	-3.41
402.515	35.5
402.723	31.4
402.932	19.11
403.141	62.12
403.35	-58.71
403.558	21.16
403.767	-40.28
403.976	144.04
404.184	90.79
404.393	15.02
404.602	4.78
404.81	-11.61
405.019	31.4
405.227	-93.52
405.436	-48.47
405.645	109.23
405.853	17.07
406.062	-27.99
406.27	8.87
406.479	10.92
406.687	0.68
406.896	-32.08
407.104	41.64
407.313	39.59
407.521	17.07
407.73	-44.37
407.938	-36.18
408.147	-25.94
408.355	-85.33
408.563	-34.13
408.772	-40.28
408.98	49.83
409.189	35.5
409.397	47.79
409.605	35.5
409.814	41.64
410.022	23.21
410.23	-25.94
410.439	-38.23
410.647	88.75
410.855	49.83
411.064	2.73
411.272	6.83
411.48	10.92
411.688	31.4
411.897	162.47
412.105	-58.71
412.313	-21.85
412.521	76.46
412.73	31.4
412.938	-52.56
413.146	33.45
413.354	-46.42
413.562	-48.47
413.77	-109.91
413.979	-21.85
414.187	6.83
414.395	12.97
414.603	12.97
414.811	-11.61
415.019	68.27
415.227	29.35
415.435	-19.8
415.643	92.84
415.851	-27.99
416.059	6.83
416.267	-17.75
416.475	-13.65
416.683	105.13
416.891	-30.04
417.099	37.55
417.307	15.02
417.515	-15.7
417.723	-44.37
417.931	113.32
418.139	129.7
418.347	19.11
418.555	-25.94
418.763	-23.89
418.971	45.74
419.179	27.31
419.386	-21.85
419.594	-9.56
419.802	-79.19
420.01	31.4
420.218	25.26
420.426	-64.85
420.633	80.55
420.841	0.68
421.049	-85.33
421.257	82.6
421.464	47.79
421.672	86.7
421.88	-9.56
422.088	25.26
422.295	53.93
422.503	-132.44
422.711	-21.85
422.918	70.31
423.126	-9.56
423.334	-48.47
423.541	35.5
423.749	49.83
423.956	-32.08
424.164	70.31
424.372	31.4
424.579	-50.52
424.787	31.4
424.994	-66.9
425.202	27.31
425.409	53.93
425.617	-77.14
425.824	-3.41
426.032	-81.24
426.239	-15.7
426.447	-17.75
426.654	-3.41
426.862	-40.28
427.069	-132.44
427.277	60.07
427.484	19.11
427.692	51.88
427.899	-21.85
428.106	-46.42
428.314	35.5
428.521	39.59
428.728	19.11
428.936	17.07
429.143	197.29
429.351	-3.41
429.558	-64.85
429.765	58.03
429.972	6.83
430.18	156.33
430.387	88.75
430.594	84.65
430.801	62.12
431.009	90.79
431.216	10.92
431.423	19.11
431.63	82.6
431.838	49.83
432.045	-3.41
432.252	90.79
432.459	64.17
432.666	-17.75
432.873	-87.38
433.081	96.94
433.288	31.4
433.495	-17.75
433.702	37.55
433.909	39.59
434.116	62.12
434.323	-85.33
434.53	-42.32
434.737	21.16
434.944	-11.61
435.151	-152.91
435.358	0.68
435.565	12.97
435.772	-54.61
435.979	23.21
436.186	35.5
436.393	-15.7
436.6	-68.95
436.807	-34.13
437.014	-19.8
437.221	-54.61
437.428	-9.56
437.635	-9.56
437.841	4.78
438.048	-73.04
438.255	-30.04
438.462	98.99
438.669	135.85
438.876	29.35
439.082	-32.08
439.289	-5.46
439.496	12.97
439.703	-27.99
439.91	-5.46
440.116	-5.46
440.323	-34.13
440.53	-13.65
440.737	-52.56
440.943	113.32
441.15	-38.23
441.357	-68.95
441.563	-71
441.77	31.4
441.977	-73.04
442.183	90.79
442.39	-48.47
442.597	-120.15
442.803	-3.41
443.01	-30.04
443.216	-21.85
443.423	70.31
443.63	76.46
443.836	103.08
444.043	-25.94
444.249	6.83
444.456	39.59
444.662	-42.32
444.869	-5.46
445.075	84.65
445.282	37.55
445.488	-3.41
445.695	74.41
445.901	31.4
446.107	41.64
446.314	107.18
446.52	45.74
446.727	-5.46
446.933	-11.61
447.139	10.92
447.346	53.93
447.552	0.68
447.759	43.69
447.965	37.55
448.171	29.35
448.378	10.92
448.584	-23.89
448.79	45.74
448.996	-40.28
449.203	4.78
449.409	-50.52
449.615	-5.46
449.821	96.94
450.028	84.65
450.234	111.27
450.44	39.59
450.646	2.73
450.852	125.61
451.059	49.83
451.265	-1.37
451.471	62.12
451.677	-66.9
451.883	43.69
452.089	-73.04
452.295	-34.13
452.502	33.45
452.708	37.55
452.914	17.07
453.12	-17.75
453.326	88.75
453.532	-1.37
453.738	-56.66
453.944	45.74
454.15	12.97
454.356	8.87
454.562	51.88
454.768	31.4
454.974	146.09
455.18	37.55
455.386	82.6
455.592	60.07
455.798	-23.89
456.003	15.02
456.209	47.79
456.415	-11.61
456.621	125.61
456.827	-44.37
457.033	6.83
457.239	-60.76
457.444	35.5
457.65	-32.08
457.856	8.87
458.062	109.23
458.268	-44.37
458.473	37.55
458.679	19.11
458.885	-46.42
459.091	-5.46
459.296	21.16
459.502	-36.18
459.708	41.64
459.914	47.79
460.119	2.73
460.325	-77.14
460.531	10.92
460.736	19.11
460.942	105.13
461.147	-34.13
461.353	23.21
461.559	0.68
461.764	82.6
461.97	-79.19
462.175	4.78
462.381	94.89
462.587	31.4
462.792	-48.47
462.998	82.6
463.203	-11.61
463.409	21.16
463.614	6.83
463.82	121.51
464.025	37.55
464.231	-71
464.436	41.64
464.641	119.46
464.847	-7.51
465.052	94.89
465.258	66.22
465.463	53.93
465.669	-9.56
465.874	-50.52
466.079	-38.23
466.285	10.92
466.49	27.31
466.695	-32.08
466.901	70.31
467.106	45.74
467.311	12.97
467.516	4.78
467.722	-58.71
467.927	64.17
468.132	123.56
468.338	-9.56
468.543	45.74
468.748	2.73
468.953	-73.04
469.158	74.41
469.364	64.17
469.569	117.42
469.774	-38.23
469.979	12.97
470.184	47.79
470.389	35.5
470.594	55.98
470.8	45.74
471.005	-23.89
471.21	152.23
471.415	47.79
471.62	76.46
471.825	35.5
472.03	2.73
472.235	148.14
472.44	148.14
472.645	82.6
472.85	29.35
473.055	101.03
473.26	6.83
473.465	68.27
473.67	43.69
473.875	41.64
474.08	164.52
474.285	58.03
474.49	-46.42
474.695	74.41
474.899	90.79
475.104	70.31
475.309	74.41
475.514	-3.41
475.719	199.34
475.924	68.27
476.128	101.03
476.333	78.51
476.538	182.95
476.743	139.94
476.948	98.99
477.152	125.61
477.357	146.09
477.562	35.5
477.767	113.32
477.971	76.46
478.176	144.04
478.381	-15.7
478.585	58.03
478.79	37.55
478.995	64.17
479.199	72.36
479.404	141.99
479.609	64.17
479.813	53.93
480.018	90.79
480.223	180.9
480.427	139.94
480.632	232.1
480.836	236.2
481.041	670.37
481.245	289.45
481.45	244.39
481.654	55.98
481.859	96.94
482.063	225.96
482.268	273.06
482.472	408.23
482.677	248.49
482.881	250.53
483.086	182.95
483.29	107.18
483.495	234.15
483.699	246.44
483.903	363.17
484.108	201.38
484.312	295.59
484.517	559.78
484.721	262.82
484.925	273.06
485.13	475.81
485.334	254.63
485.538	285.35
485.743	219.82
485.947	223.91
486.151	334.5
486.355	354.98
486.56	256.68
486.764	293.54
486.968	178.86
487.172	244.39
487.377	271.01
487.581	309.93
487.785	86.7
487.989	488.1
488.193	457.38
488.397	701.09
488.602	504.48
488.806	625.31
489.01	293.54
489.214	354.98
489.418	230.06
489.622	570.02
489.826	213.67
490.03	289.45
490.234	391.84
490.438	228.01
490.642	303.78
490.846	268.97
491.05	154.28
491.254	336.55
491.458	176.81
491.662	434.85
491.866	232.1
492.07	285.35
492.274	189.1
492.478	369.32
492.682	94.89
492.886	301.73
493.09	291.49
493.294	248.49
493.498	127.66
493.701	336.55
493.905	279.21
494.109	309.93
494.313	314.02
494.517	371.37
494.721	197.29
494.924	117.42
495.128	279.21
495.332	455.33
495.536	189.1
495.739	320.17
495.943	193.19
496.147	330.41
496.351	162.47
496.554	541.35
496.758	203.43
496.962	162.47
497.165	187.05
497.369	236.2
497.573	174.76
497.776	465.57
497.98	238.25
498.184	303.78
498.387	436.9
498.591	367.27
498.794	354.98
498.998	258.73
499.202	223.91
499.405	260.77
499.609	193.19
499.812	266.92
500.016	60.07
500.219	371.37
500.423	133.8
500.626	535.2
500.83	479.91
501.033	625.31
501.237	236.2
501.44	615.07
501.643	457.38
501.847	674.46
502.05	262.82
502.254	549.54
502.457	383.65
502.66	387.75
502.864	154.28
503.067	277.16
503.271	150.18
503.474	176.81
503.677	148.14
503.88	338.6
504.084	211.62
504.287	209.58
504.49	217.77
504.694	236.2
504.897	178.86
505.1	359.08
505.303	397.99
505.507	932.51
505.71	463.52
505.913	527.01
506.116	164.52
506.319	400.04
506.522	490.15
506.726	318.12
506.929	422.56
507.132	842.4
507.335	162.47
507.538	268.97
507.741	371.37
507.944	64.17
508.147	207.53
508.35	465.57
508.553	121.51
508.756	338.6
508.959	127.66
509.163	240.3
509.366	193.19
509.569	262.82
509.771	109.23
509.974	232.1
510.177	258.73
510.38	311.97
510.583	215.72
510.786	271.01
510.989	336.55
511.192	389.8
511.395	162.47
511.598	146.09
511.801	80.55
512.004	357.03
512.206	150.18
512.409	330.41
512.612	217.77
512.815	375.46
513.018	182.95
513.22	320.17
513.423	156.33
513.626	266.92
513.829	189.1
514.032	363.17
514.234	201.38
514.437	361.13
514.64	191.14
514.842	287.4
515.045	154.28
515.248	334.5
515.45	139.94
515.653	213.67
515.856	219.82
516.058	197.29
516.261	307.88
516.464	10.92
516.666	10.92
516.869	484
517.071	158.38
517.274	383.65
517.477	115.37
517.679	363.17
517.882	172.71
518.084	291.49
518.287	228.01
518.489	391.84
518.692	475.81
518.894	334.5
519.097	488.1
519.299	76.46
519.501	221.86
519.704	348.84
519.906	197.29
520.109	543.39
520.311	117.42
520.514	469.67
520.716	328.36
520.918	250.53
521.121	281.25
521.323	512.67
521.525	125.61
521.728	461.48
521.93	174.76
522.132	432.8
522.335	875.17
522.537	871.07
522.739	105.13
522.941	410.28
523.144	258.73
523.346	287.4
523.548	316.07
523.75	129.7
523.952	203.43
524.155	201.38
524.357	15.02
524.559	172.71
524.761	119.46
524.963	264.87
525.165	119.46
525.368	271.01
525.57	197.29
525.772	283.3
525.974	66.22
526.176	295.59
526.378	119.46
526.58	275.11
526.782	127.66
526.984	182.95
527.186	43.69
527.388	213.67
527.59	6.83
527.792	334.5
527.994	105.13
528.196	275.11
528.398	98.99
528.6	103.08
528.802	35.5
529.004	62.12
529.206	58.03
529.408	361.13
529.609	133.8
529.811	246.44
530.013	148.14
530.215	135.85
530.417	187.05
530.619	258.73
530.821	219.82
531.022	260.77
531.224	64.17
531.426	363.17
531.628	176.81
531.829	199.34
532.031	43.69
532.233	160.42
532.435	72.36
532.636	150.18
532.838	84.65
533.04	219.82
533.241	96.94
533.443	156.33
533.645	285.35
533.846	47.79
534.048	96.94
534.25	90.79
534.451	58.03
534.653	180.9
534.855	111.27
535.056	49.83
535.258	0.68
535.459	105.13
535.661	131.75
535.862	191.14
536.064	23.21
536.265	148.14
536.467	27.31
536.668	60.07
536.87	160.42
537.071	182.95
537.273	135.85
537.474	160.42
537.676	174.76
537.877	197.29
538.078	17.07
538.28	31.4
538.481	133.8
538.683	174.76
538.884	27.31
539.085	37.55
539.287	201.38
539.488	72.36
539.689	58.03
539.891	221.86
540.092	37.55
540.293	191.14
540.495	162.47
540.696	121.51
540.897	131.75
541.098	31.4
541.3	123.56
541.501	203.43
541.702	160.42
541.903	164.52
542.104	17.07
542.306	66.22
542.507	178.86
542.708	121.51
542.909	141.99
543.11	119.46
543.311	-7.51
543.512	121.51
543.713	70.31
543.915	125.61
544.116	-1.37
544.317	236.2
544.518	82.6
544.719	86.7
544.92	182.95
545.121	58.03
545.322	185
545.523	240.3
545.724	160.42
545.925	232.1
546.126	8.87
546.327	273.06
546.528	53.93
546.729	-25.94
546.929	119.46
547.13	107.18
547.331	109.22
547.532	66.22
547.733	78.51
547.934	174.76
548.135	12.97
548.336	131.75
548.536	35.5
548.737	158.38
548.938	225.96
549.139	86.7
549.34	78.51
549.54	164.52
549.741	113.32
549.942	279.21
550.143	-9.56
550.343	133.8
550.544	23.21
550.745	180.9
550.945	-32.08
551.146	-40.28
551.347	66.22
551.547	55.98
551.748	6.83
551.949	64.17
552.149	53.93
552.35	172.71
552.551	72.36
552.751	131.75
552.952	47.79
553.152	90.79
553.353	283.3
553.553	2.73
553.754	127.66
553.954	53.93
554.155	17.07
554.356	150.18
554.556	21.16
554.756	129.7
554.957	113.32
555.157	64.17
555.358	43.69
555.558	-21.85
555.759	119.46
555.959	60.07
556.159	113.32
556.36	172.71
556.56	41.64
556.761	318.12
556.961	68.27
557.161	264.87
557.362	15.02
557.562	275.11
557.762	74.41
557.963	29.35
558.163	160.42
558.363	2.73
558.563	195.24
558.764	86.7
558.964	92.84
559.164	207.53
559.364	53.93
559.565	328.36
559.765	49.83
559.965	105.13
560.165	121.51
560.365	152.23
560.565	232.1
560.766	105.13
560.966	137.9
561.166	117.42
561.366	187.05
561.566	113.32
561.766	94.89
561.966	246.44
562.166	-34.13
562.366	217.77
562.566	129.7
562.766	160.42
562.966	201.38
563.166	-30.04
563.366	215.72
563.566	74.41
563.766	256.68
563.966	238.25
564.166	-32.08
564.366	316.07
564.566	17.07
564.766	205.48
564.966	72.36
565.166	205.48
565.366	-30.04
565.565	117.42
565.765	37.55
565.965	-54.61
566.165	107.18
566.365	88.75
566.565	148.14
566.764	172.71
566.964	-36.18
567.164	342.69
567.364	78.51
567.564	215.72
567.763	141.99
567.963	78.51
568.163	86.7
568.362	232.1
568.562	84.65
568.762	-7.51
568.961	98.99
569.161	107.18
569.361	60.07
569.56	121.51
569.76	-30.04
569.96	242.34
570.159	47.79
570.359	137.9
570.558	62.12
570.758	115.37
570.958	148.14
571.157	60.07
571.357	166.57
571.556	109.22
571.756	205.48
571.955	-44.37
572.155	70.31
572.354	166.57
572.554	51.88
572.753	82.6
572.953	94.89
573.152	105.13
573.351	119.46
573.551	371.37
573.75	45.74
573.95	111.27
574.149	23.21
574.348	19.11
574.548	137.9
574.747	25.26
574.946	45.74
575.146	158.38
575.345	64.17
575.544	8.87
575.744	58.03
575.943	33.45
576.142	58.03
576.342	107.18
576.541	51.88
576.74	64.17
576.939	-21.85
577.138	96.94
577.338	113.32
577.537	-30.04
577.736	51.88
577.935	98.99
578.134	90.79
578.333	115.37
578.533	123.56
578.732	84.65
578.931	68.27
579.13	88.75
579.329	45.74
579.528	60.07
579.727	103.08
579.926	135.85
580.125	58.03
580.324	78.51
580.523	78.51
580.722	21.16
580.921	31.4
581.12	45.74
581.319	82.6
581.518	33.45
581.717	45.74
581.916	6.83
582.115	-9.56
582.314	58.03
582.513	-30.04
582.712	127.66
582.911	-7.51
583.109	144.04
583.308	-1.37
583.507	125.61
583.706	-58.71
583.905	131.75
584.104	58.03
584.302	53.93
584.501	55.98
584.7	43.69
584.899	33.45
585.098	4.78
585.296	127.66
585.495	-1.37
585.694	37.55
585.892	-9.56
586.091	37.55
586.29	-77.14
586.488	139.94
586.687	131.75
586.886	10.92
587.084	94.89
587.283	139.94
587.482	160.42
587.68	68.27
587.879	156.33
588.077	105.13
588.276	424.61
588.475	236.2
588.673	375.46
588.872	471.72
589.07	393.89
589.269	103.08
589.467	131.75
589.666	88.75
589.864	8.87
590.063	17.07
590.261	-50.52
590.46	123.56
590.658	47.79
590.857	45.74
591.055	-56.66
591.253	131.75
591.452	82.6
591.65	162.47
591.848	-7.51
592.047	23.21
592.245	166.57
592.444	-11.61
592.642	21.16
592.84	109.23
593.038	25.26
593.237	27.31
593.435	103.08
593.633	66.22
593.832	-56.66
594.03	242.34
594.228	101.03
594.426	10.92
594.624	0.68
594.823	45.74
595.021	92.84
595.219	90.79
595.417	-25.94
595.615	76.46
595.813	74.41
596.012	-46.42
596.21	45.74
596.408	31.4
596.606	98.99
596.804	37.55
597.002	74.41
597.2	-1.37
597.398	64.17
597.596	-17.75
597.794	29.35
597.992	47.79
598.19	74.41
598.388	15.02
598.586	127.66
598.784	-44.37
598.982	96.94
599.18	70.31
599.378	107.18
599.576	-19.8
599.774	66.22
599.972	23.21
600.17	27.31
600.368	146.09
600.565	127.66
600.763	88.75
600.961	-25.94
601.159	88.75
601.357	31.4
601.555	125.61
601.752	117.42
601.95	29.35
602.148	-23.89
602.346	86.7
602.544	152.23
602.741	78.51
602.939	189.1
603.137	109.23
603.334	88.75
603.532	-11.61
603.73	244.39
603.927	-3.41
604.125	189.1
604.323	-5.46
604.52	264.87
604.718	39.59
604.916	180.9
605.113	17.07
605.311	160.42
605.508	88.75
605.706	111.27
605.904	45.74
606.101	248.49
606.299	117.42
606.496	76.46
606.694	-3.41
606.891	144.04
607.089	72.36
607.286	68.27
607.484	51.88
607.681	12.97
607.879	62.12
608.076	-5.46
608.273	58.03
608.471	47.79
608.668	86.7
608.866	88.75
609.063	41.64
609.26	-23.89
609.458	109.23
