Data from LSP86_F8_Subt2_17-08-01-789.txt Node
Date: Tue Aug 22 17:08:01 EDT 2023
User: Emmanuel
Spectrometer: USB4A00615
Scans to average: 1
Trigger mode: 1
Integration Time (sec): 5.000000E-3
Electric dark correction enabled: true
Boxcar width: 0
XAxis mode: Wavelengths
Number of Pixels in Spectrum: 3648
>>>>>Begin Spectral Data<<<<<
346.606	10.24
346.818	10.24
347.029	10.24
347.241	-30.72
347.452	-26.62
347.664	45.06
347.876	-26.62
348.087	61.44
348.299	-110.59
348.51	53.25
348.722	40.96
348.933	-8.19
349.145	-38.91
349.356	-18.43
349.568	86.01
349.779	-2.05
349.991	-81.92
350.202	45.06
350.414	-32.77
350.625	-14.34
350.836	-10.24
351.048	-6.14
351.259	36.86
351.471	-79.87
351.682	20.48
351.893	-28.67
352.105	-90.11
352.316	43.01
352.527	55.3
352.739	57.34
352.95	40.96
353.161	-32.77
353.372	-100.35
353.584	16.38
353.795	26.62
354.006	14.34
354.217	4.1
354.429	-2.05
354.64	-4.1
354.851	-16.38
355.062	81.92
355.274	98.3
355.485	10.24
355.696	-20.48
355.907	94.21
356.118	-53.25
356.329	12.29
356.54	-8.19
356.752	71.68
356.963	22.53
357.174	61.44
357.385	-57.34
357.596	34.82
357.807	12.29
358.018	-86.01
358.229	126.97
358.44	-40.96
358.651	12.29
358.862	-47.1
359.073	26.62
359.284	98.3
359.495	-28.67
359.706	-28.67
359.917	81.92
360.128	-12.29
360.339	57.34
360.55	-51.2
360.761	4.1
360.972	71.68
361.182	38.91
361.393	-55.3
361.604	-139.26
361.815	-83.97
362.026	14.34
362.237	-26.62
362.447	-16.38
362.658	-30.72
362.869	-28.67
363.08	8.19
363.291	16.38
363.501	-8.19
363.712	-8.19
363.923	28.67
364.134	-34.82
364.344	-16.38
364.555	65.53
364.766	36.86
364.976	47.1
365.187	126.97
365.398	-18.43
365.608	-40.96
365.819	34.82
366.03	26.62
366.24	-30.72
366.451	-49.15
366.662	116.73
366.872	-14.34
367.083	12.29
367.293	-40.96
367.504	43.01
367.714	-38.91
367.925	-24.58
368.135	-188.41
368.346	10.24
368.557	-0
368.767	77.82
368.977	-55.3
369.188	61.44
369.398	-88.06
369.609	-4.1
369.819	-40.96
370.03	10.24
370.24	86.01
370.451	26.62
370.661	4.1
370.871	-16.38
371.082	47.1
371.292	-22.53
371.502	-22.53
371.713	73.73
371.923	67.58
372.133	34.82
372.344	-75.77
372.554	65.53
372.764	69.63
372.975	4.1
373.185	30.72
373.395	18.43
373.605	-43.01
373.816	-10.24
374.026	-81.92
374.236	-40.96
374.446	26.62
374.656	24.58
374.867	65.53
375.077	45.06
375.287	-57.34
375.497	-20.48
375.707	-47.1
375.917	71.68
376.127	28.67
376.338	-75.77
376.548	12.29
376.758	77.82
376.968	40.96
377.178	-2.05
377.388	-108.54
377.598	-10.24
377.808	110.59
378.018	49.15
378.228	4.1
378.438	-40.96
378.648	24.58
378.858	40.96
379.068	-24.58
379.278	69.63
379.488	16.38
379.698	186.37
379.908	-75.77
380.118	34.82
380.327	22.53
380.537	12.29
380.747	-28.67
380.957	16.38
381.167	-4.1
381.377	-49.15
381.587	77.82
381.796	47.1
382.006	-94.21
382.216	-6.14
382.426	-2.05
382.636	-104.45
382.845	-40.96
383.055	69.63
383.265	45.06
383.475	-47.1
383.684	26.62
383.894	65.53
384.104	129.02
384.313	-28.67
384.523	53.25
384.733	-8.19
384.942	-51.2
385.152	55.3
385.362	-6.14
385.571	2.05
385.781	108.54
385.991	-108.54
386.2	-57.34
386.41	-61.44
386.619	-32.77
386.829	-63.49
387.038	-6.14
387.248	-8.19
387.457	61.44
387.667	-18.43
387.876	10.24
388.086	-90.11
388.295	43.01
388.505	-63.49
388.714	26.62
388.924	8.19
389.133	-20.48
389.343	45.06
389.552	-22.53
389.762	-43.01
389.971	-18.43
390.18	-16.38
390.39	6.14
390.599	-24.58
390.808	-71.68
391.018	-8.19
391.227	-2.05
391.436	-8.19
391.646	18.43
391.855	57.34
392.064	-18.43
392.274	69.63
392.483	38.91
392.692	-28.67
392.901	-8.19
393.111	-24.58
393.32	-16.38
393.529	36.86
393.738	49.15
393.947	43.01
394.157	26.62
394.366	57.34
394.575	-88.06
394.784	4.1
394.993	-16.38
395.202	24.58
395.411	75.77
395.62	118.78
395.83	-55.3
396.039	0
396.248	-20.48
396.457	-16.38
396.666	28.67
396.875	-110.59
397.084	-38.91
397.293	30.72
397.502	2.05
397.711	40.96
397.92	-0
398.129	16.38
398.338	51.2
398.547	155.65
398.756	-18.43
398.965	49.15
399.174	38.91
399.382	30.72
399.591	-12.29
399.8	88.06
400.009	-20.48
400.218	-75.77
400.427	38.91
400.636	55.3
400.844	-86.01
401.053	-94.21
401.262	-71.68
401.471	6.14
401.68	-20.48
401.888	-22.53
402.097	-69.63
402.306	-10.24
402.515	-14.34
402.723	53.25
402.932	-36.86
403.141	73.73
403.35	51.2
403.558	-96.25
403.767	-67.58
403.976	-0
404.184	36.86
404.393	-67.58
404.602	22.53
404.81	22.53
405.019	16.38
405.227	-61.44
405.436	55.3
405.645	106.49
405.853	-47.1
406.062	75.77
406.27	-2.05
406.479	-4.1
406.687	32.77
406.896	100.35
407.104	-40.96
407.313	51.2
407.521	-51.2
407.73	22.53
407.938	45.06
408.147	-2.05
408.355	-47.1
408.563	55.3
408.772	2.05
408.98	22.53
409.189	-6.14
409.397	57.34
409.605	69.63
409.814	-16.38
410.022	-63.49
410.23	18.43
410.439	-49.15
410.647	-34.82
410.855	-73.73
411.064	45.06
411.272	-14.34
411.48	43.01
411.688	51.2
411.897	-38.91
412.105	28.67
412.313	-2.05
412.521	126.97
412.73	-75.77
412.938	-2.05
413.146	-90.11
413.354	16.38
413.562	-18.43
413.77	26.62
413.979	-57.34
414.187	-61.44
414.395	20.48
414.603	-8.19
414.811	-22.53
415.019	77.82
415.227	-77.82
415.435	83.97
415.643	8.19
415.851	-61.44
416.059	-102.4
416.267	43.01
416.475	10.24
416.683	65.53
416.891	-53.25
417.099	47.1
417.307	-38.91
417.515	-59.39
417.723	59.39
417.931	-24.58
418.139	4.1
418.347	63.49
418.555	-120.83
418.763	16.38
418.971	59.39
419.179	-47.1
419.386	90.11
419.594	14.34
419.802	-67.58
420.01	143.36
420.218	38.91
420.426	-47.1
420.633	38.91
420.841	69.63
421.049	26.62
421.257	108.54
421.464	-59.39
421.672	92.16
421.88	65.53
422.088	81.92
422.295	110.59
422.503	12.29
422.711	24.58
422.918	75.77
423.126	6.14
423.334	-8.19
423.541	-2.05
423.749	14.34
423.956	-28.67
424.164	77.82
424.372	-92.16
424.579	-24.58
424.787	57.34
424.994	24.58
425.202	69.63
425.409	-14.34
425.617	106.49
425.824	96.25
426.032	-98.3
426.239	4.1
426.447	34.82
426.654	-26.62
426.862	86.01
427.069	-45.06
427.277	22.53
427.484	-6.14
427.692	34.82
427.899	47.1
428.106	53.25
428.314	-51.2
428.521	10.24
428.728	59.39
428.936	-36.86
429.143	28.67
429.351	-30.72
429.558	12.29
429.765	-2.05
429.972	26.62
430.18	43.01
430.387	34.82
430.594	24.58
430.801	43.01
431.009	-36.86
431.216	96.25
431.423	-30.72
431.63	71.68
431.838	75.77
432.045	-43.01
432.252	147.45
432.459	-28.67
432.666	24.58
432.873	-38.91
433.081	-14.34
433.288	-16.38
433.495	12.29
433.702	-18.43
433.909	-24.58
434.116	0
434.323	16.38
434.53	16.38
434.737	-36.86
434.944	-49.15
435.151	-88.06
435.358	-24.58
435.565	34.82
435.772	16.38
435.979	28.67
436.186	-32.77
436.393	40.96
436.6	26.62
436.807	30.72
437.014	61.44
437.221	-12.29
437.428	-77.82
437.635	-65.54
437.841	-118.78
438.048	126.97
438.255	4.1
438.462	116.73
438.669	4.1
438.876	65.53
439.082	57.34
439.289	40.96
439.496	12.29
439.703	-4.1
439.91	28.67
440.116	65.53
440.323	-14.34
440.53	92.16
440.737	-79.87
440.943	112.64
441.15	38.91
441.357	-65.54
441.563	-22.53
441.77	8.19
441.977	-55.3
442.183	-10.24
442.39	36.86
442.597	112.64
442.803	65.53
443.01	53.25
443.216	61.44
443.423	59.39
443.63	-73.73
443.836	-18.43
444.043	-16.38
444.249	-24.58
444.456	-36.86
444.662	-24.58
444.869	157.69
445.075	-26.62
445.282	14.34
445.488	26.62
445.695	102.4
445.901	57.34
446.107	-92.16
446.314	47.1
446.52	65.53
446.727	-18.43
446.933	73.73
447.139	-24.58
447.346	-8.19
447.552	-57.34
447.759	-100.35
447.965	86.01
448.171	24.58
448.378	63.49
448.584	-77.82
448.79	-20.48
448.996	-24.58
449.203	-65.54
449.409	2.05
449.615	106.49
449.821	-16.38
450.028	2.05
450.234	104.45
450.44	86.01
450.646	-32.77
450.852	106.49
451.059	86.01
451.265	81.92
451.471	-63.49
451.677	108.54
451.883	-38.91
452.089	-51.2
452.295	2.05
452.502	51.2
452.708	49.15
452.914	47.1
453.12	34.82
453.326	2.05
453.532	-10.24
453.738	-116.73
453.944	18.43
454.15	53.25
454.356	-59.39
454.562	30.72
454.768	-69.63
454.974	106.49
455.18	65.53
455.386	45.06
455.592	-26.62
455.798	-94.21
456.003	53.25
456.209	104.45
456.415	-83.97
456.621	-61.44
456.827	-26.62
457.033	45.06
457.239	51.2
457.444	12.29
457.65	-83.97
457.856	67.58
458.062	-34.82
458.268	-45.06
458.473	-26.62
458.679	53.25
458.885	34.82
459.091	-10.24
459.296	-16.38
459.502	24.58
459.708	-51.2
459.914	-28.67
460.119	-43.01
460.325	-12.29
460.531	71.68
460.736	-57.34
460.942	22.53
461.147	69.63
461.353	8.19
461.559	53.25
461.764	-32.77
461.97	-69.63
462.175	-118.78
462.381	96.25
462.587	10.24
462.792	43.01
462.998	0
463.203	-4.1
463.409	71.68
463.614	8.19
463.82	14.34
464.025	141.31
464.231	77.82
464.436	38.91
464.641	-26.62
464.847	61.44
465.052	-83.97
465.258	45.06
465.463	10.24
465.669	36.86
465.874	59.39
466.079	143.36
466.285	-43.01
466.49	-2.05
466.695	-16.38
466.901	16.38
467.106	6.14
467.311	18.43
467.516	-45.06
467.722	-40.96
467.927	-63.49
468.132	-51.2
468.338	20.48
468.543	28.67
468.748	-10.24
468.953	-10.24
469.158	75.77
469.364	28.67
469.569	57.34
469.774	40.96
469.979	24.58
470.184	-45.06
470.389	-38.91
470.594	-40.96
470.8	-40.96
471.005	-28.67
471.21	-65.54
471.415	57.34
471.62	-49.15
471.825	14.34
472.03	-61.44
472.235	0
472.44	-6.14
472.645	65.53
472.85	-96.25
473.055	-45.06
473.26	10.24
473.465	-6.14
473.67	18.43
473.875	20.48
474.08	8.19
474.285	24.58
474.49	-10.24
474.695	75.77
474.899	26.62
475.104	6.14
475.309	75.77
475.514	69.63
475.719	53.25
475.924	-43.01
476.128	47.1
476.333	0
476.538	65.53
476.743	-63.49
476.948	-57.34
477.152	81.92
477.357	-67.58
477.562	2.05
477.767	75.77
477.971	104.45
478.176	-73.73
478.381	-59.39
478.585	-53.25
478.79	-45.06
478.995	40.96
479.199	10.24
479.404	-22.53
479.609	-67.58
479.813	118.78
480.018	-4.1
480.223	-4.1
480.427	126.97
480.632	53.25
480.836	-16.38
481.041	71.68
481.245	34.82
481.45	26.62
481.654	-67.58
481.859	67.58
482.063	16.38
482.268	59.39
482.472	38.91
482.677	75.77
482.881	-20.48
483.086	141.31
483.29	53.25
483.495	22.53
483.699	104.45
483.903	65.53
484.108	126.97
484.312	53.25
484.517	86.01
484.721	-2.05
484.925	-59.39
485.13	-32.77
485.334	12.29
485.538	36.86
485.743	-22.53
485.947	32.77
486.151	8.19
486.355	-24.58
486.56	38.91
486.764	43.01
486.968	-28.67
487.172	45.06
487.377	-79.87
487.581	34.82
487.785	40.96
487.989	90.11
488.193	-45.06
488.397	20.48
488.602	79.87
488.806	129.02
489.01	20.48
489.214	-49.15
489.418	79.87
489.622	34.82
489.826	22.53
490.03	-30.72
490.234	-22.53
490.438	-32.77
490.642	-26.62
490.846	-47.1
491.05	-2.05
491.254	20.48
491.458	28.67
491.662	49.15
491.866	4.1
492.07	-63.49
492.274	30.72
492.478	-53.25
492.682	45.06
492.886	-6.14
493.09	79.87
493.294	-28.67
493.498	43.01
493.701	-55.3
493.905	61.44
494.109	-36.86
494.313	-12.29
494.517	77.82
494.721	45.06
494.924	2.05
495.128	155.65
495.332	69.63
495.536	-28.67
495.739	98.3
495.943	18.43
496.147	83.97
496.351	-2.05
496.554	-67.58
496.758	-92.16
496.962	14.34
497.165	-8.19
497.369	-6.14
497.573	-10.24
497.776	69.63
497.98	53.25
498.184	43.01
498.387	92.16
498.591	51.2
498.794	6.14
498.998	-6.14
499.202	12.29
499.405	57.34
499.609	-4.1
499.812	73.73
500.016	-102.4
500.219	79.87
500.423	104.45
500.626	81.92
500.83	-24.58
501.033	141.31
501.237	180.22
501.44	155.65
501.643	106.49
501.847	30.72
502.05	40.96
502.254	12.29
502.457	-34.82
502.66	-6.14
502.864	-49.15
503.067	-73.73
503.271	-14.34
503.474	16.38
503.677	22.53
503.88	6.14
504.084	12.29
504.287	16.38
504.49	32.77
504.694	57.34
504.897	116.73
505.1	325.63
505.303	206.84
505.507	112.64
505.71	116.73
505.913	100.35
506.116	20.48
506.319	-14.34
506.522	77.82
506.726	106.49
506.929	288.76
507.132	51.2
507.335	12.29
507.538	51.2
507.741	59.39
507.944	30.72
508.147	-59.39
508.35	-81.92
508.553	90.11
508.756	-45.06
508.959	-75.77
509.163	-24.58
509.366	-18.43
509.569	-79.87
509.771	14.34
509.974	-73.73
510.177	57.34
510.38	-40.96
510.583	65.53
510.786	75.77
510.989	26.62
511.192	65.53
511.395	12.29
511.598	-77.82
511.801	102.4
512.004	24.58
512.206	90.11
512.409	-18.43
512.612	20.48
512.815	73.73
513.018	96.25
513.22	-20.48
513.423	18.43
513.626	-20.48
513.829	18.43
514.032	51.2
514.234	-57.34
514.437	77.82
514.64	-49.15
514.842	-26.62
515.045	-65.54
515.248	100.35
515.45	34.82
515.653	59.39
515.856	2.05
516.058	-0
516.261	-63.49
516.464	22.53
516.666	61.44
516.869	-2.05
517.071	-118.78
517.274	-47.1
517.477	53.25
517.679	-36.86
517.882	-30.72
518.084	24.58
518.287	-28.67
518.489	-2.05
518.692	77.82
518.894	34.82
519.097	-28.67
519.299	63.49
519.501	30.72
519.704	-16.38
519.906	57.34
520.109	30.72
520.311	-22.53
520.514	71.68
520.716	-55.3
520.918	71.68
521.121	112.64
521.323	108.54
521.525	18.43
521.728	57.34
521.93	104.45
522.132	970.74
522.335	192.51
522.537	163.84
522.739	18.43
522.941	77.82
523.144	-32.77
523.346	22.53
523.548	12.29
523.75	73.73
523.952	-18.43
524.155	73.73
524.357	-40.96
524.559	4.1
524.761	-53.25
524.963	77.82
525.165	90.11
525.368	-20.48
525.57	63.49
525.772	55.3
525.974	-12.29
526.176	-10.24
526.378	-14.34
526.58	-12.29
526.782	-71.68
526.984	-86.01
527.186	24.58
527.388	6.14
527.59	110.59
527.792	102.4
527.994	63.49
528.196	-26.62
528.398	71.68
528.6	-8.19
528.802	47.1
529.004	30.72
529.206	-22.53
529.408	-8.19
529.609	-8.19
529.811	49.15
530.013	14.34
530.215	20.48
530.417	108.54
530.619	20.48
530.821	20.48
531.022	-69.63
531.224	51.2
531.426	71.68
531.628	49.15
531.829	30.72
532.031	75.77
532.233	-30.72
532.435	22.53
532.636	-83.97
532.838	153.6
533.04	36.86
533.241	-4.1
533.443	-4.1
533.645	26.62
533.846	-77.82
534.048	-8.19
534.25	-45.06
534.451	30.72
534.653	59.39
534.855	79.87
535.056	-81.92
535.258	24.58
535.459	104.45
535.661	20.48
535.862	-155.65
536.064	-36.86
536.265	-18.43
536.467	-43.01
536.668	49.15
536.87	-18.43
537.071	30.72
537.273	75.77
537.474	-26.62
537.676	2.05
537.877	-8.19
538.078	-65.54
538.28	-2.05
538.481	-8.19
538.683	61.44
538.884	10.24
539.085	30.72
539.287	-61.44
539.488	63.49
539.689	-12.29
539.891	30.72
540.092	30.72
540.293	2.05
540.495	96.25
540.696	-10.24
540.897	59.39
541.098	40.96
541.3	-55.3
541.501	-40.96
541.702	88.06
541.903	75.77
542.104	12.29
542.306	53.25
542.507	-4.1
542.708	69.63
542.909	20.48
543.11	2.05
543.311	-34.82
543.512	43.01
543.713	16.38
543.915	-47.1
544.116	-81.92
544.317	63.49
544.518	30.72
544.719	-22.53
544.92	-34.82
545.121	30.72
545.322	-12.29
545.523	-26.62
545.724	-88.06
545.925	116.73
546.126	49.15
546.327	-40.96
546.528	114.69
546.729	-40.96
546.929	8.19
547.13	-4.1
547.331	10.24
547.532	100.35
547.733	-45.06
547.934	94.21
548.135	-45.06
548.336	63.49
548.536	28.67
548.737	40.96
548.938	77.82
549.139	157.69
549.34	141.31
549.54	-20.48
549.741	14.34
549.942	61.44
550.143	-20.48
550.343	73.73
550.544	14.34
550.745	81.92
550.945	83.97
551.146	10.24
551.347	-79.87
551.547	-10.24
551.748	34.82
551.949	-22.53
552.149	126.97
552.35	-2.05
552.551	73.73
552.751	-24.58
552.952	116.73
553.152	77.82
553.353	-32.77
553.553	-8.19
553.754	79.87
553.954	-67.58
554.155	-124.93
554.356	43.01
554.556	-0
554.756	22.53
554.957	-71.68
555.157	-14.34
555.358	63.49
555.558	-40.96
555.759	-24.58
555.959	75.77
556.159	-34.82
556.36	69.63
556.56	88.06
556.761	100.35
556.961	81.92
557.161	75.77
557.362	83.97
557.562	67.58
557.762	-12.29
557.963	8.19
558.163	30.72
558.363	14.34
558.563	-36.86
558.764	20.48
558.964	161.79
559.164	-57.34
559.364	61.44
559.565	-49.15
559.765	57.34
559.965	71.68
560.165	20.48
560.365	-2.05
560.565	-49.15
560.766	10.24
560.966	22.53
561.166	-4.1
561.366	139.26
561.566	61.44
561.766	34.82
561.966	-45.06
562.166	57.34
562.366	53.25
562.566	120.83
562.766	-26.62
562.966	26.62
563.166	55.3
563.366	90.11
563.566	-108.54
563.766	24.58
563.966	122.88
564.166	104.45
564.366	-24.58
564.566	-18.43
564.766	28.67
564.966	-67.58
565.166	14.34
565.366	18.43
565.565	4.1
565.765	4.1
565.965	-75.77
566.165	-22.53
566.365	-4.1
566.565	69.63
566.764	20.48
566.964	-16.38
567.164	-77.82
567.364	14.34
567.564	26.62
567.763	-47.1
567.963	-20.48
568.163	-77.82
568.362	71.68
568.562	90.11
568.762	-18.43
568.961	45.06
569.161	-12.29
569.361	65.53
569.56	20.48
569.76	-6.14
569.96	51.2
570.159	14.34
570.359	-6.14
570.558	63.49
570.758	36.86
570.958	-2.05
571.157	94.21
571.357	-0
571.556	0
571.756	24.58
571.955	106.49
572.155	34.82
572.354	-24.58
572.554	28.67
572.753	73.73
572.953	122.88
573.152	-24.58
573.351	26.62
573.551	-24.58
573.75	-38.91
573.95	6.14
574.149	112.64
574.348	-4.1
574.548	26.62
574.747	-126.97
574.946	124.93
575.146	22.53
575.345	-36.86
575.544	-34.82
575.744	94.21
575.943	8.19
576.142	65.53
576.342	67.58
576.541	18.43
576.74	-65.54
576.939	69.63
577.138	8.19
577.338	10.24
577.537	-14.34
577.736	116.73
577.935	20.48
578.134	14.34
578.333	51.2
578.533	55.3
578.732	43.01
578.931	8.19
579.13	100.35
579.329	-65.54
579.528	-40.96
579.727	59.39
579.926	28.67
580.125	-30.72
580.324	18.43
580.523	-73.73
580.722	32.77
580.921	10.24
581.12	-6.14
581.319	6.14
581.518	18.43
581.717	30.72
581.916	-98.3
582.115	59.39
582.314	-77.82
582.513	-26.62
582.712	-22.53
582.911	-22.53
583.109	34.82
583.308	-4.1
583.507	-47.1
583.706	2.05
583.905	-20.48
584.104	10.24
584.302	94.21
584.501	0
584.7	-49.15
584.899	26.62
585.098	-26.62
585.296	43.01
585.495	40.96
585.694	-14.34
585.892	51.2
586.091	-65.54
586.29	-22.53
586.488	141.31
586.687	30.72
586.886	55.3
587.084	61.44
587.283	-67.58
587.482	90.11
587.68	71.68
587.879	81.92
588.077	-14.34
588.276	16.38
588.475	-22.53
588.673	-22.53
588.872	73.73
589.07	45.06
589.269	26.62
589.467	-67.58
589.666	40.96
589.864	30.72
590.063	26.62
590.261	32.77
590.46	51.2
590.658	96.25
590.857	-6.14
591.055	71.68
591.253	0
591.452	-57.34
591.65	-38.91
591.848	32.77
592.047	-45.06
592.245	-10.24
592.444	114.69
592.642	24.58
592.84	77.82
593.038	-18.43
593.237	-10.24
593.435	61.44
593.633	-75.77
593.832	-65.54
594.03	-69.63
594.228	-32.77
594.426	92.16
594.624	43.01
594.823	16.38
595.021	40.96
595.219	24.58
595.417	92.16
595.615	-59.39
595.813	14.34
596.012	116.73
596.21	-20.48
596.408	-0
596.606	102.4
596.804	47.1
597.002	-32.77
597.2	-49.15
597.398	-38.91
597.596	34.82
597.794	-30.72
597.992	18.43
598.19	-8.19
598.388	102.4
598.586	219.13
598.784	2.05
598.982	-69.63
599.18	88.06
599.378	81.92
599.576	-34.82
599.774	47.1
599.972	57.34
600.17	43.01
600.368	-26.62
600.565	-92.16
600.763	137.21
600.961	18.43
601.159	-4.1
601.357	59.39
601.555	16.38
601.752	30.72
601.95	92.16
602.148	-135.17
602.346	-14.34
602.544	40.96
602.741	26.62
602.939	32.77
603.137	32.77
603.334	-34.82
603.532	12.29
603.73	-28.67
603.927	65.53
604.125	-18.43
604.323	12.29
604.52	-10.24
604.718	-6.14
604.916	-4.1
605.113	-32.77
605.311	-45.06
605.508	100.35
605.706	59.39
605.904	-26.62
606.101	34.82
606.299	12.29
606.496	-45.06
606.694	47.1
606.891	-6.14
607.089	36.86
607.286	16.38
607.484	10.24
607.681	-51.2
607.879	24.58
608.076	12.29
608.273	-20.48
608.471	-61.44
608.668	69.63
608.866	32.77
609.063	10.24
609.26	49.15
609.458	-18.43
609.655	32.77
609.852	-10.24
610.05	55.3
610.247	98.3
610.444	61.44
610.642	-71.68
610.839	32.77
611.036	57.34
611.233	30.72
611.431	59.39
