Data from LSP84_F6_Subt2_15-23-44-618.txt Node
Date: Tue Aug 22 15:23:44 EDT 2023
User: Emmanuel
Spectrometer: USB4A00615
Scans to average: 1
Trigger mode: 1
Integration Time (sec): 5.000000E-3
Electric dark correction enabled: true
Boxcar width: 0
XAxis mode: Wavelengths
Number of Pixels in Spectrum: 3648
>>>>>Begin Spectral Data<<<<<
346.606	17.58
346.818	17.58
347.029	17.58
347.241	68.78
347.452	40.11
347.664	-35.67
347.876	-33.62
348.087	-54.1
348.299	-2.9
348.51	70.83
348.722	-37.72
348.933	48.3
349.145	13.48
349.356	-25.43
349.568	-95.06
349.779	107.69
349.991	44.2
350.202	-82.77
350.414	-68.44
350.625	-39.76
350.836	-21.33
351.048	29.87
351.259	-4.95
351.471	-64.34
351.682	-60.24
351.893	68.78
352.105	13.48
352.316	-17.24
352.527	11.43
352.739	5.29
352.95	25.77
353.161	50.35
353.372	-25.43
353.584	-2.9
353.795	1.19
354.006	33.96
354.217	105.64
354.429	-68.44
354.64	27.82
354.851	1.19
355.062	9.39
355.274	-19.29
355.485	58.54
355.696	-15.19
355.907	-4.95
356.118	-25.43
356.329	-113.49
356.54	5.29
356.752	11.43
356.963	-54.1
357.174	-31.57
357.385	-17.24
357.596	99.5
357.807	66.73
358.018	46.25
358.229	50.35
358.44	-80.72
358.651	44.2
358.862	-58.2
359.073	-19.29
359.284	-0.85
359.495	44.2
359.706	91.31
359.917	144.55
360.128	-7
360.339	-17.24
360.55	74.92
360.761	-19.29
360.972	11.43
361.182	-11.09
361.393	25.77
361.604	99.5
361.815	-62.29
362.026	-121.68
362.237	-2.9
362.447	50.35
362.658	42.15
362.869	-21.33
363.08	42.15
363.291	-33.62
363.501	-70.48
363.712	-0.85
363.923	-47.96
364.134	38.06
364.344	74.92
364.555	48.3
364.766	5.29
364.976	-17.24
365.187	-25.43
365.398	-35.67
365.608	36.01
365.819	-27.48
366.03	-7
366.24	-58.2
366.451	38.06
366.662	31.91
366.872	-179.03
367.083	-15.19
367.293	-43.86
367.504	97.45
367.714	-9.05
367.925	21.67
368.135	-88.92
368.346	-2.9
368.557	-39.76
368.767	103.59
368.977	-7
369.188	-70.48
369.398	-125.78
369.609	19.63
369.819	-31.57
370.03	44.2
370.24	-80.72
370.451	70.83
370.661	62.63
370.871	-84.82
371.082	-21.33
371.292	33.96
371.502	62.63
371.713	21.67
371.923	74.92
372.133	25.77
372.344	-54.1
372.554	-21.33
372.764	19.63
372.975	-13.14
373.185	-117.59
373.395	13.48
373.605	21.67
373.816	-0.85
374.026	-37.72
374.236	-107.35
374.446	79.02
374.656	36.01
374.867	-39.76
375.077	9.39
375.287	-76.63
375.497	-13.14
375.707	7.34
375.917	-45.91
376.127	25.77
376.338	70.83
376.548	-60.24
376.758	9.39
376.968	31.91
377.178	11.43
377.388	-21.33
377.598	-2.9
377.808	54.44
378.018	-23.38
378.228	-43.86
378.438	1.19
378.648	36.01
378.858	-2.9
379.068	19.63
379.278	-27.48
379.488	113.83
379.698	-25.43
379.908	66.73
380.118	46.25
380.327	38.06
380.537	42.15
380.747	91.31
380.957	-70.48
381.167	-76.63
381.377	19.63
381.587	85.16
381.796	-19.29
382.006	-25.43
382.216	60.59
382.426	42.15
382.636	9.39
382.845	-23.38
383.055	-70.48
383.265	29.87
383.475	29.87
383.684	19.63
383.894	64.68
384.104	-41.81
384.313	29.87
384.523	97.45
384.733	9.39
384.942	119.98
385.152	-41.81
385.362	70.83
385.571	29.87
385.781	42.15
385.991	-27.48
386.2	105.64
386.41	-15.19
386.619	-68.44
386.829	-35.67
387.038	-11.09
387.248	21.67
387.457	-23.38
387.667	9.39
387.876	-27.48
388.086	15.53
388.295	13.48
388.505	91.31
388.714	29.87
388.924	15.53
389.133	19.63
389.343	83.11
389.552	-0.85
389.762	31.91
389.971	-33.62
390.18	5.29
390.39	-95.06
390.599	-111.44
390.808	-7
391.018	87.21
391.227	15.53
391.436	62.63
391.646	-13.14
391.855	97.45
392.064	-4.95
392.274	1.19
392.483	-13.14
392.692	33.96
392.901	-21.33
393.111	-52.05
393.32	13.48
393.529	81.07
393.738	-66.39
393.947	-15.19
394.157	101.55
394.366	-7
394.575	-13.14
394.784	50.35
394.993	-52.05
395.202	15.53
395.411	-0.85
395.62	-4.95
395.83	15.53
396.039	-35.67
396.248	-2.9
396.457	-84.82
396.666	-50
396.875	33.96
397.084	-11.09
397.293	1.19
397.502	-25.43
397.711	-82.77
397.92	40.11
398.129	-19.29
398.338	-50
398.547	87.21
398.756	-31.57
398.965	-66.39
399.174	-52.05
399.382	29.87
399.591	58.54
399.8	44.2
400.009	3.24
400.218	144.55
400.427	-15.19
400.636	21.67
400.844	64.68
401.053	31.91
401.262	-70.48
401.471	52.39
401.68	27.82
401.888	-17.24
402.097	3.24
402.306	23.72
402.515	79.02
402.723	52.39
402.932	-21.33
403.141	-11.09
403.35	25.77
403.558	-27.48
403.767	85.16
403.976	25.77
404.184	64.68
404.393	56.49
404.602	52.39
404.81	-160.59
405.019	17.58
405.227	-86.87
405.436	58.54
405.645	85.16
405.853	54.44
406.062	21.67
406.27	-76.63
406.479	25.77
406.687	-39.76
406.896	1.19
407.104	-56.15
407.313	74.92
407.521	-33.62
407.73	23.72
407.938	66.73
408.147	-41.81
408.355	79.02
408.563	-29.52
408.772	-52.05
408.98	46.25
409.189	97.45
409.397	-27.48
409.605	72.87
409.814	109.74
410.022	70.83
410.23	-11.09
410.439	36.01
410.647	-82.77
410.855	-2.9
411.064	-86.87
411.272	29.87
411.48	95.4
411.688	-70.48
411.897	146.6
412.105	124.07
412.313	-62.29
412.521	-54.1
412.73	11.43
412.938	31.91
413.146	-52.05
413.354	-37.72
413.562	-60.24
413.77	-11.09
413.979	-142.16
414.187	25.77
414.395	-19.29
414.603	1.19
414.811	46.25
415.019	-37.72
415.227	87.21
415.435	40.11
415.643	-37.72
415.851	11.43
416.059	31.91
416.267	-74.58
416.475	79.02
416.683	21.67
416.891	21.67
417.099	142.5
417.307	46.25
417.515	7.34
417.723	-25.43
417.931	-19.29
418.139	46.25
418.347	-29.52
418.555	-86.87
418.763	-39.76
418.971	130.22
419.179	-60.24
419.386	-41.81
419.594	-52.05
419.802	50.35
420.01	-107.35
420.218	50.35
420.426	40.11
420.633	91.31
420.841	-2.9
421.049	-23.38
421.257	-17.24
421.464	97.45
421.672	113.83
421.88	44.2
422.088	128.17
422.295	-47.96
422.503	11.43
422.711	-9.05
422.918	79.02
423.126	-11.09
423.334	-7
423.541	89.26
423.749	87.21
423.956	17.58
424.164	33.96
424.372	21.67
424.579	117.93
424.787	42.15
424.994	-4.95
425.202	38.06
425.409	64.68
425.617	17.58
425.824	-43.86
426.032	21.67
426.239	-11.09
426.447	3.24
426.654	33.96
426.862	31.91
427.069	117.93
427.277	54.44
427.484	-25.43
427.692	68.78
427.899	95.4
428.106	83.11
428.314	-17.24
428.521	-2.9
428.728	105.64
428.936	-25.43
429.143	25.77
429.351	48.3
429.558	-47.96
429.765	3.24
429.972	31.91
430.18	-64.34
430.387	48.3
430.594	9.39
430.801	-25.43
431.009	-7
431.216	36.01
431.423	-62.29
431.63	-70.48
431.838	27.82
432.045	-19.29
432.252	154.79
432.459	11.43
432.666	-4.95
432.873	-2.9
433.081	68.78
433.288	-0.85
433.495	70.83
433.702	36.01
433.909	21.67
434.116	119.98
434.323	11.43
434.53	154.79
434.737	105.64
434.944	-86.87
435.151	72.87
435.358	-86.87
435.565	109.74
435.772	-27.48
435.979	117.93
436.186	7.34
436.393	46.25
436.6	115.88
436.807	11.43
437.014	46.25
437.221	115.88
437.428	-33.62
437.635	-7
437.841	79.02
438.048	-47.96
438.255	-41.81
438.462	66.73
438.669	23.72
438.876	13.48
439.082	62.63
439.289	11.43
439.496	54.44
439.703	52.39
439.91	-80.72
440.116	95.4
440.323	-11.09
440.53	142.5
440.737	13.48
440.943	5.29
441.15	-2.9
441.357	7.34
441.563	-13.14
441.77	-52.05
441.977	50.35
442.183	83.11
442.39	-19.29
442.597	-82.77
442.803	64.68
443.01	76.97
443.216	36.01
443.423	-17.24
443.63	64.68
443.836	13.48
444.043	122.02
444.249	-4.95
444.456	115.88
444.662	85.16
444.869	70.83
445.075	40.11
445.282	-39.76
445.488	-52.05
445.695	-11.09
445.901	-9.05
446.107	58.54
446.314	-2.9
446.52	-43.86
446.727	99.5
446.933	40.11
447.139	68.78
447.346	-2.9
447.552	-84.82
447.759	1.19
447.965	11.43
448.171	-2.9
448.378	93.35
448.584	-37.72
448.79	72.87
448.996	-33.62
449.203	-23.38
449.409	87.21
449.615	7.34
449.821	-25.43
450.028	58.54
450.234	-35.67
450.44	9.39
450.646	-2.9
450.852	-56.15
451.059	33.96
451.265	-45.91
451.471	-62.29
451.677	119.98
451.883	-31.57
452.089	119.98
452.295	52.39
452.502	140.46
452.708	-11.09
452.914	31.91
453.12	1.19
453.326	89.26
453.532	1.19
453.738	15.53
453.944	9.39
454.15	42.15
454.356	-45.91
454.562	-58.2
454.768	95.4
454.974	15.53
455.18	-25.43
455.386	-31.57
455.592	-41.81
455.798	-52.05
456.003	76.97
456.209	60.59
456.415	-78.68
456.621	101.55
456.827	-39.76
457.033	76.97
457.239	15.53
457.444	-9.05
457.65	87.21
457.856	-13.14
458.062	115.88
458.268	-9.05
458.473	54.44
458.679	79.02
458.885	89.26
459.091	-27.48
459.296	-115.54
459.502	62.63
459.708	83.11
459.914	11.43
460.119	68.78
460.325	83.11
460.531	-66.39
460.736	-54.1
460.942	-37.72
461.147	33.96
461.353	64.68
461.559	-2.9
461.764	-90.96
461.97	-13.14
462.175	-19.29
462.381	-11.09
462.587	56.49
462.792	179.37
462.998	-43.86
463.203	42.15
463.409	40.11
463.614	23.72
463.82	66.73
464.025	74.92
464.231	-60.24
464.436	17.58
464.641	-86.87
464.847	56.49
465.052	126.12
465.258	-72.53
465.463	17.58
465.669	36.01
465.874	-19.29
466.079	97.45
466.285	21.67
466.49	23.72
466.695	40.11
466.901	21.67
467.106	38.06
467.311	-25.43
467.516	-72.53
467.722	36.01
467.927	-111.44
468.132	-7
468.338	-52.05
468.543	76.97
468.748	-15.19
468.953	105.64
469.158	-39.76
469.364	-33.62
469.569	9.39
469.774	-9.05
469.979	31.91
470.184	60.59
470.389	119.98
470.594	-45.91
470.8	81.07
471.005	-7
471.21	-39.76
471.415	7.34
471.62	42.15
471.825	76.97
472.03	72.87
472.235	-15.19
472.44	50.35
472.645	7.34
472.85	13.48
473.055	58.54
473.26	11.43
473.465	-31.57
473.67	13.48
473.875	134.31
474.08	132.26
474.285	31.91
474.49	7.34
474.695	46.25
474.899	66.73
475.104	-31.57
475.309	36.01
475.514	27.82
475.719	3.24
475.924	-11.09
476.128	76.97
476.333	89.26
476.538	-86.87
476.743	33.96
476.948	-21.33
477.152	54.44
477.357	89.26
477.562	76.97
477.767	42.15
477.971	17.58
478.176	124.07
478.381	-13.14
478.585	21.67
478.79	3.24
478.995	46.25
479.199	15.53
479.404	54.44
479.609	113.83
479.813	-7
480.018	91.31
480.223	107.69
480.427	105.64
480.632	154.79
480.836	134.31
481.041	373.92
481.245	167.08
481.45	3.24
481.654	109.74
481.859	87.21
482.063	40.11
482.268	126.12
482.472	91.31
482.677	130.22
482.881	68.78
483.086	23.72
483.29	-29.52
483.495	130.22
483.699	126.12
483.903	201.9
484.108	97.45
484.312	54.44
484.517	146.6
484.721	-2.9
484.925	36.01
485.13	87.21
485.334	87.21
485.538	132.26
485.743	126.12
485.947	119.98
486.151	68.78
486.355	74.92
486.56	142.5
486.764	76.97
486.968	89.26
487.172	23.72
487.377	99.5
487.581	212.14
487.785	-80.72
487.989	275.62
488.193	165.03
488.397	332.97
488.602	203.94
488.806	269.48
489.01	97.45
489.214	19.63
489.418	152.74
489.622	156.84
489.826	105.64
490.03	91.31
490.234	66.73
490.438	54.44
490.642	136.36
490.846	150.7
491.05	136.36
491.254	54.44
491.458	11.43
491.662	212.14
491.866	25.77
492.07	66.73
492.274	91.31
492.478	199.85
492.682	21.67
492.886	44.2
493.09	124.07
493.294	87.21
493.498	62.63
493.701	109.74
493.905	162.98
494.109	203.94
494.313	128.17
494.517	214.18
494.721	83.11
494.924	205.99
495.128	89.26
495.332	124.07
495.536	19.63
495.739	105.64
495.943	70.83
496.147	56.49
496.351	11.43
496.554	249
496.758	107.69
496.962	113.83
497.165	48.3
497.369	64.68
497.573	99.5
497.776	179.37
497.98	72.87
498.184	269.48
498.387	222.38
498.591	103.59
498.794	40.11
498.998	195.75
499.202	46.25
499.405	126.12
499.609	74.92
499.812	167.08
500.016	150.7
500.219	191.66
500.423	128.17
500.626	392.36
500.83	160.94
501.033	195.75
501.237	117.93
501.44	275.62
501.643	289.96
501.847	328.87
502.05	218.28
502.254	189.61
502.457	119.98
502.66	218.28
502.864	33.96
503.067	212.14
503.271	9.39
503.474	126.12
503.677	70.83
503.88	154.79
504.084	-9.05
504.287	5.29
504.49	64.68
504.694	152.74
504.897	81.07
505.1	226.47
505.303	273.57
505.507	582.82
505.71	267.43
505.913	326.82
506.116	36.01
506.319	249
506.522	146.6
506.726	140.46
506.929	83.11
507.132	527.52
507.335	197.8
507.538	103.59
507.741	208.04
507.944	175.27
508.147	5.29
508.35	138.41
508.553	27.82
508.756	-4.95
508.959	70.83
509.163	64.68
509.366	64.68
509.569	179.37
509.771	25.77
509.974	60.59
510.177	89.26
510.38	126.12
510.583	58.54
510.786	21.67
510.989	109.74
511.192	214.18
511.395	-11.09
511.598	-66.39
511.801	-31.57
512.004	126.12
512.206	70.83
512.409	177.32
512.612	66.73
512.815	156.84
513.018	162.98
513.22	85.16
513.423	91.31
513.626	101.55
513.829	124.07
514.032	165.03
514.234	113.83
514.437	173.22
514.64	136.36
514.842	99.5
515.045	83.11
515.248	152.74
515.45	36.01
515.653	-58.2
515.856	72.87
516.058	160.94
516.261	109.74
516.464	-50
516.666	109.74
516.869	68.78
517.071	128.17
517.274	150.7
517.477	148.65
517.679	138.41
517.882	19.63
518.084	115.88
518.287	97.45
518.489	222.38
518.692	226.47
518.894	181.42
519.097	175.27
519.299	208.04
519.501	109.74
519.704	165.03
519.906	140.46
520.109	249
520.311	-13.14
520.514	289.96
520.716	150.7
520.918	122.02
521.121	99.5
521.323	167.08
521.525	68.78
521.728	85.16
521.93	111.78
522.132	271.53
522.335	795.81
522.537	478.37
522.739	76.97
522.941	183.46
523.144	-27.48
523.346	105.64
523.548	122.02
523.75	9.39
523.952	132.26
524.155	-11.09
524.357	-0.85
524.559	119.98
524.761	93.35
524.963	70.83
525.165	54.44
525.368	15.53
525.57	128.17
525.772	87.21
525.974	76.97
526.176	103.59
526.378	144.55
526.58	119.98
526.782	128.17
526.984	-66.39
527.186	89.26
527.388	13.48
527.59	62.63
527.792	58.54
527.994	87.21
528.196	91.31
528.398	36.01
528.6	111.78
528.802	83.11
529.004	79.02
529.206	-33.62
529.408	179.37
529.609	23.72
529.811	148.65
530.013	60.59
530.215	134.31
530.417	85.16
530.619	101.55
530.821	21.67
531.022	81.07
531.224	38.06
531.426	212.14
531.628	46.25
531.829	58.54
532.031	29.87
532.233	68.78
532.435	1.19
532.636	107.69
532.838	-52.05
533.04	81.07
533.241	11.43
533.443	15.53
533.645	64.68
533.846	126.12
534.048	27.82
534.25	87.21
534.451	105.64
534.653	97.45
534.855	54.44
535.056	60.59
535.258	48.3
535.459	126.12
535.661	31.91
535.862	99.5
536.064	42.15
536.265	-17.24
536.467	38.06
536.668	111.78
536.87	122.02
537.071	29.87
537.273	142.5
537.474	91.31
537.676	89.26
537.877	38.06
538.078	-23.38
538.28	15.53
538.481	74.92
538.683	81.07
538.884	-15.19
539.085	33.96
539.287	31.91
539.488	97.45
539.689	-25.43
539.891	259.24
540.092	97.45
540.293	-19.29
540.495	105.64
540.696	113.83
540.897	44.2
541.098	23.72
541.3	7.34
541.501	122.02
541.702	-13.14
541.903	146.6
542.104	52.39
542.306	-90.96
542.507	103.59
542.708	66.73
542.909	93.35
543.11	111.78
543.311	101.55
543.512	-15.19
543.713	-15.19
543.915	-29.52
544.116	3.24
544.317	64.68
544.518	-13.14
544.719	-15.19
544.92	122.02
545.121	115.88
545.322	42.15
545.523	89.26
545.724	48.3
545.925	87.21
546.126	107.69
546.327	128.17
546.528	79.02
546.729	-47.96
546.929	-13.14
547.13	-35.67
547.331	9.39
547.532	58.54
547.733	54.44
547.934	111.78
548.135	-17.24
548.336	44.2
548.536	-70.48
548.737	27.82
548.938	99.5
549.139	36.01
549.34	72.87
549.54	91.31
549.741	9.39
549.942	85.16
550.143	-45.91
550.343	85.16
550.544	-0.85
550.745	-7
550.945	89.26
551.146	-7
551.347	95.4
551.547	-9.05
551.748	21.67
551.949	72.87
552.149	146.6
552.35	33.96
552.551	5.29
552.751	128.17
552.952	56.49
553.152	-39.76
553.353	74.92
553.553	62.63
553.754	70.83
553.954	36.01
554.155	31.91
554.356	-15.19
554.556	62.63
554.756	124.07
554.957	64.68
555.157	115.88
555.358	72.87
555.558	72.87
555.759	15.53
555.959	7.34
556.159	-4.95
556.36	83.11
556.56	76.97
556.761	142.5
556.961	3.24
557.161	25.77
557.362	95.4
557.562	181.42
557.762	17.58
557.963	25.77
558.163	54.44
558.363	-17.24
558.563	173.22
558.764	40.11
558.964	29.87
559.164	17.58
559.364	42.15
559.565	58.54
559.765	62.63
559.965	83.11
560.165	128.17
560.365	27.82
560.565	154.79
560.766	56.49
560.966	5.29
561.166	-2.9
561.366	91.31
561.566	117.93
561.766	3.24
561.966	126.12
562.166	66.73
562.366	60.59
562.566	79.02
562.766	-11.09
562.966	21.67
563.166	-9.05
563.366	52.39
563.566	117.93
563.766	-4.95
563.966	52.39
564.166	58.54
564.366	222.38
564.566	89.26
564.766	107.69
564.966	48.3
565.166	152.74
565.366	33.96
565.565	91.31
565.765	54.44
565.965	87.21
566.165	50.35
566.365	150.7
566.565	89.26
566.764	115.88
566.964	-62.29
567.164	181.42
567.364	50.35
567.564	76.97
567.763	-17.24
567.963	-64.34
568.163	101.55
568.362	50.35
568.562	140.46
568.762	126.12
568.961	119.98
569.161	58.54
569.361	-0.85
569.56	23.72
569.76	-43.86
569.96	33.96
570.159	83.11
570.359	62.63
570.558	31.91
570.758	19.63
570.958	-50
571.157	9.39
571.357	81.07
571.556	66.73
571.756	212.14
571.955	40.11
572.155	13.48
572.354	134.31
572.554	103.59
572.753	111.78
572.953	54.44
573.152	-41.81
573.351	40.11
573.551	99.5
573.75	-41.81
573.95	72.87
574.149	85.16
574.348	33.96
574.548	50.35
574.747	17.58
574.946	-0.85
575.146	33.96
575.345	-43.86
575.544	-7
575.744	50.35
575.943	113.83
576.142	-19.29
576.342	66.73
576.541	113.83
576.74	54.44
576.939	64.68
577.138	-0.85
577.338	54.44
577.537	31.91
577.736	93.35
577.935	13.48
578.134	13.48
578.333	-9.05
578.533	95.4
578.732	15.53
578.931	42.15
579.13	-15.19
579.329	74.92
579.528	103.59
579.727	9.39
579.926	25.77
580.125	111.78
580.324	101.55
580.523	29.87
580.722	-15.19
580.921	-25.43
581.12	-76.63
581.319	-29.52
581.518	128.17
581.717	-37.72
581.916	15.53
582.115	-56.15
582.314	31.91
582.513	74.92
582.712	-13.14
582.911	162.98
583.109	36.01
583.308	-2.9
583.507	130.22
583.706	-19.29
583.905	-9.05
584.104	7.34
584.302	25.77
584.501	-74.58
584.7	66.73
584.899	46.25
585.098	40.11
585.296	85.16
585.495	-9.05
585.694	60.59
585.892	-4.95
586.091	81.07
586.29	58.54
586.488	-13.14
586.687	-27.48
586.886	1.19
587.084	-76.63
587.283	17.58
587.482	9.39
587.68	66.73
587.879	-17.24
588.077	-66.39
588.276	87.21
588.475	15.53
588.673	87.21
588.872	27.82
589.07	-138.07
589.269	62.63
589.467	36.01
589.666	52.39
589.864	58.54
590.063	33.96
590.261	21.67
590.46	-35.67
590.658	-7
590.857	60.59
591.055	-21.33
591.253	144.55
591.452	23.72
591.65	64.68
591.848	-7
592.047	27.82
592.245	66.73
592.444	-13.14
592.642	-23.38
592.84	-41.81
593.038	62.63
593.237	-27.48
593.435	66.73
593.633	-9.05
593.832	33.96
594.03	103.59
594.228	-2.9
594.426	44.2
594.624	-113.49
594.823	-4.95
595.021	-78.68
595.219	64.68
595.417	-35.67
595.615	25.77
595.813	11.43
596.012	-23.38
596.21	64.68
596.408	-2.9
596.606	36.01
596.804	52.39
597.002	9.39
597.2	72.87
597.398	48.3
597.596	-25.43
597.794	21.67
597.992	54.44
598.19	1.19
598.388	21.67
598.586	7.34
598.784	83.11
598.982	1.19
599.18	7.34
599.378	103.59
599.576	-82.77
599.774	-2.9
599.972	-64.34
600.17	58.54
600.368	-11.09
600.565	58.54
600.763	85.16
600.961	-31.57
601.159	76.97
601.357	156.84
601.555	54.44
601.752	52.39
601.95	72.87
602.148	79.02
602.346	33.96
602.544	-9.05
602.741	-7
602.939	64.68
603.137	50.35
603.334	56.49
603.532	42.15
603.73	19.63
603.927	54.44
604.125	-13.14
604.323	-0.85
604.52	183.46
604.718	-41.81
604.916	89.26
605.113	31.91
605.311	124.07
605.508	-56.15
605.706	79.02
605.904	-72.53
606.101	33.96
606.299	50.35
606.496	11.43
606.694	25.77
606.891	-23.38
607.089	48.3
607.286	79.02
607.484	64.68
607.681	-70.48
607.879	140.46
608.076	-29.52
608.273	-21.33
608.471	85.16
608.668	-43.86
608.866	-0.85
609.063	109.74
609.26	-54.1
609.458	-7
609.655	50.35
609.852	50.35
610.05	33.96
610.247	42.15
610.444	95.4
610.642	7.34
610.839	13.48
611.036	56.49
611.233	48.3
611.431	-23.38
611.628	9.39
