Data from Subt2_10-25-44-218.txt Node
Date: Wed Aug 09 10:25:44 EDT 2023
User: Emmanuel
Spectrometer: USB4A00615
Scans to average: 1
Trigger mode: 4
Integration Time (sec): 2.000000E-2
Electric dark correction enabled: true
Boxcar width: 0
XAxis mode: Wavelengths
Number of Pixels in Spectrum: 3648
>>>>>Begin Spectral Data<<<<<
346.606	-47.27
346.818	-47.27
347.029	-47.27
347.241	-57.51
347.452	14.17
347.664	-57.51
347.876	-2.22
348.087	18.26
348.299	61.27
348.51	44.88
348.722	12.12
348.933	16.21
349.145	-20.65
349.356	-34.99
349.568	-16.55
349.779	-2.22
349.991	-18.6
350.202	-106.67
350.414	71.51
350.625	12.12
350.836	243.54
351.048	81.75
351.259	16.21
351.471	106.32
351.682	149.33
351.893	112.47
352.105	167.76
352.316	132.95
352.527	-8.36
352.739	46.93
352.95	51.03
353.161	71.51
353.372	5.97
353.584	53.08
353.795	59.22
354.006	122.71
354.217	130.9
354.429	65.36
354.64	114.52
354.851	126.8
355.062	112.47
355.274	153.43
355.485	145.24
355.696	214.87
355.907	165.71
356.118	75.6
356.329	118.61
356.54	194.39
356.752	5.97
356.963	132.95
357.174	159.57
357.385	16.21
357.596	-30.89
357.807	184.15
358.018	132.95
358.229	102.23
358.44	173.91
358.651	75.6
358.862	143.19
359.073	165.71
359.284	38.74
359.495	196.43
359.706	137.04
359.917	106.32
360.128	75.6
360.339	184.15
360.55	126.8
360.761	210.77
360.972	202.58
361.182	-2.22
361.393	89.94
361.604	73.56
361.815	153.43
362.026	100.18
362.237	157.52
362.447	145.24
362.658	218.96
362.869	206.67
363.08	257.87
363.291	120.66
363.501	264.02
363.712	153.43
363.923	157.52
364.134	53.08
364.344	139.09
364.555	190.29
364.766	253.78
364.976	124.76
365.187	249.68
365.398	178
365.608	270.16
365.819	171.86
366.03	255.83
366.24	331.6
366.451	237.39
366.662	317.26
366.872	278.35
367.083	393.04
367.293	169.81
367.504	284.5
367.714	345.94
367.925	309.07
368.135	182.1
368.346	130.9
368.557	233.3
368.767	284.5
368.977	339.79
369.188	341.84
369.398	266.07
369.609	257.87
369.819	323.41
370.03	259.92
370.24	304.98
370.451	245.59
370.661	300.88
370.871	266.07
371.082	329.55
371.292	259.92
371.502	208.72
371.713	333.65
371.923	337.74
372.133	364.37
372.344	317.26
372.554	323.41
372.764	298.83
372.975	261.97
373.185	270.16
373.395	288.59
373.605	274.26
373.816	382.8
374.026	401.23
374.236	407.38
374.446	380.75
374.656	364.37
374.867	323.41
375.077	347.98
375.287	325.46
375.497	393.04
375.707	438.09
375.917	362.32
376.127	415.57
376.338	343.89
376.548	466.77
376.758	380.75
376.968	372.56
377.178	343.89
377.388	415.57
377.598	370.51
377.808	390.99
378.018	405.33
378.228	399.18
378.438	454.48
378.648	440.14
378.858	456.53
379.068	448.33
379.278	575.31
379.488	503.63
379.698	364.37
379.908	479.05
380.118	370.51
380.327	460.62
380.537	536.4
380.747	505.68
380.957	554.83
381.167	513.87
381.377	429.9
381.587	409.42
381.796	474.96
382.006	585.55
382.216	567.12
382.426	495.44
382.636	589.64
382.845	438.09
383.055	520.01
383.265	565.07
383.475	538.45
383.684	595.79
383.894	509.77
384.104	491.34
384.313	536.4
384.523	544.59
384.733	620.36
384.942	544.59
385.152	595.79
385.362	536.4
385.571	491.34
385.781	579.4
385.991	677.71
386.2	597.84
386.41	618.32
386.619	528.21
386.829	669.52
387.038	665.42
387.248	675.66
387.457	706.38
387.667	806.73
387.876	700.23
388.086	735.05
388.295	692.04
388.505	718.67
388.714	773.96
388.924	718.67
389.133	771.91
389.343	747.34
389.552	722.76
389.762	747.34
389.971	706.38
390.18	845.64
390.39	825.16
390.599	675.66
390.808	728.91
391.018	849.74
391.227	798.54
391.436	859.98
391.646	868.17
391.855	814.92
392.064	812.87
392.274	941.89
392.483	880.46
392.692	964.42
392.901	1032.01
393.111	843.59
393.32	999.24
393.529	902.98
393.738	960.33
393.947	968.52
394.157	960.33
394.366	853.83
394.575	1013.57
394.784	1009.48
394.993	1060.68
395.202	1105.73
395.411	1081.16
395.62	1072.96
395.83	1056.58
396.039	1005.38
396.248	1001.29
396.457	1029.96
396.666	1046.34
396.875	1013.57
397.084	1193.8
397.293	1009.48
397.502	1130.31
397.711	1113.92
397.92	931.66
398.129	1175.36
398.338	1072.96
398.547	1062.73
398.756	1158.98
398.965	1005.38
399.174	1154.88
399.382	1132.36
399.591	1120.07
399.8	1302.34
400.009	1169.22
400.218	1140.55
400.427	1222.47
400.636	1253.19
400.844	1187.65
401.053	1249.09
401.262	1265.47
401.471	1187.65
401.68	1326.91
401.888	1234.75
402.097	1208.13
402.306	1374.02
402.515	1367.87
402.723	1322.82
402.932	1267.52
403.141	1232.71
403.35	1351.49
403.558	1195.84
403.767	1335.1
403.976	1410.88
404.184	1331.01
404.393	1476.41
404.602	1316.67
404.81	1343.3
405.019	1353.54
405.227	1476.41
405.436	1474.37
405.645	1322.82
405.853	1367.87
406.062	1462.08
406.27	1468.22
406.479	1451.84
406.687	1513.28
406.896	1490.75
407.104	1404.74
407.313	1519.42
407.521	1599.29
407.73	1566.53
407.938	1707.84
408.147	1519.42
408.355	1670.97
408.563	1636.16
408.772	1636.16
408.98	1574.72
409.189	1816.38
409.397	1638.2
409.605	1705.79
409.814	1679.16
410.022	1707.84
410.23	1589.05
410.439	1765.18
410.647	1965.88
410.855	1730.36
411.064	1847.1
411.272	1728.31
411.48	1877.82
411.688	1912.63
411.897	1851.19
412.105	1945.4
412.313	1935.16
412.521	2084.66
412.73	1974.07
412.938	2082.61
413.146	1998.65
413.354	2062.13
413.562	2111.29
413.77	2281.27
413.979	2080.57
414.187	2033.46
414.395	1939.26
414.603	2309.94
414.811	2139.96
415.019	2064.18
415.227	2174.77
415.435	2350.9
415.643	2029.37
415.851	2197.3
416.059	2322.23
416.267	2213.68
416.475	2166.58
416.683	2363.19
416.891	2326.32
417.099	2422.58
417.307	2281.27
417.515	2367.28
417.723	2246.45
417.931	2340.66
418.139	2535.21
418.347	2424.62
418.555	2336.56
418.763	2410.29
418.971	2410.29
419.179	2443.06
419.386	2570.03
419.594	2512.69
419.802	2592.56
420.01	2531.12
420.218	2541.36
420.426	2602.8
420.633	2703.15
420.841	2524.97
421.049	2608.94
421.257	2676.52
421.464	2709.29
421.672	2754.35
421.88	2643.76
422.088	2633.52
422.295	2615.09
422.503	2795.31
422.711	2836.27
422.918	2821.93
423.126	2639.66
423.334	2604.85
423.541	2547.5
423.749	2965.29
423.956	2787.11
424.164	2795.31
424.372	2821.93
424.579	2883.37
424.787	2907.94
424.994	3077.93
425.202	2979.62
425.409	2879.27
425.617	2737.96
425.824	2789.16
426.032	2961.19
426.239	2776.87
426.447	2944.81
426.654	2928.42
426.862	2957.1
427.069	2993.96
427.277	3018.54
427.484	3122.98
427.692	2996.01
427.899	3059.49
428.106	2983.72
428.314	3024.68
428.521	3153.7
428.728	3143.46
428.936	3157.8
429.143	3022.63
429.351	3145.51
429.558	3258.15
429.765	3229.48
429.972	2961.19
430.18	3194.66
430.387	3264.29
430.594	3188.52
430.801	3303.2
431.009	3211.04
431.216	3284.77
431.423	2985.77
431.63	3352.35
431.838	3389.22
432.045	3297.06
432.252	3350.31
432.459	3327.78
432.666	3503.9
432.873	3387.17
433.081	3510.05
433.288	3532.58
433.495	3407.65
433.702	3577.63
433.909	3532.58
434.116	3462.94
434.323	3571.49
434.53	3585.82
434.737	3594.01
434.944	3655.45
435.151	3665.69
435.358	3589.92
435.565	3804.96
435.772	3688.22
435.979	3694.36
436.186	3843.87
436.393	3761.95
436.6	3749.66
436.807	3815.2
437.014	3927.83
437.221	3823.39
437.428	4024.09
437.635	3972.89
437.841	4116.25
438.048	3995.42
438.255	4128.53
438.462	4304.66
438.669	4163.35
438.876	4273.94
439.082	4106.01
439.289	4097.81
439.496	4253.46
439.703	4210.45
439.91	4349.71
440.116	4427.54
440.323	4396.82
440.53	4347.67
440.737	4431.63
440.943	4302.61
441.15	4546.32
441.357	4310.8
441.563	4306.71
441.77	4544.27
441.977	4568.85
442.183	4527.89
442.39	4458.26
442.597	4599.57
442.803	4894.47
443.01	4706.06
443.216	4640.53
443.423	4574.99
443.63	4706.06
443.836	4939.53
444.043	4638.48
444.249	4871.95
444.456	4851.47
444.662	4515.6
444.869	4882.19
445.075	4914.95
445.282	4792.08
445.488	4906.76
445.695	4640.53
445.901	5072.65
446.107	5109.51
446.314	5091.08
446.52	4990.73
446.727	4990.73
446.933	5203.72
447.139	5050.12
447.346	5285.64
447.552	5011.21
447.759	5136.13
447.965	5299.97
448.171	5129.99
448.378	4900.62
448.584	5392.13
448.79	5056.26
448.996	5375.75
449.203	5273.35
449.409	5037.83
449.615	5256.97
449.821	5302.02
450.028	5281.54
450.234	5338.88
450.44	5299.97
450.646	5445.38
450.852	5365.51
451.059	5476.1
451.265	5490.43
451.471	5388.04
451.677	5355.27
451.883	5613.31
452.089	5287.68
452.295	5594.88
452.502	5601.02
452.708	5388.04
452.914	5983.99
453.12	5555.97
453.326	5590.78
453.532	5789.44
453.738	5519.11
453.944	5641.98
454.15	5781.25
454.356	5822.2
454.562	5828.35
454.768	5963.51
454.974	5678.85
455.18	5674.75
455.386	5721.85
455.592	5723.9
455.798	5578.5
456.003	5768.96
456.209	5820.16
456.415	5951.23
456.621	5732.09
456.827	5601.02
457.033	5830.4
457.239	5771.01
457.444	5977.85
457.65	5867.26
457.856	6014.71
458.062	5895.93
458.268	5844.73
458.473	6004.47
458.679	6264.57
458.885	6031.1
459.091	6029.05
459.296	5936.89
459.502	6188.79
459.708	5895.93
459.914	6033.15
460.119	6248.18
460.325	6049.53
460.531	6258.42
460.736	6100.73
460.942	6475.51
461.147	6113.02
461.353	6420.21
461.559	6493.94
461.764	6432.5
461.97	6440.69
462.175	6627.06
462.381	6754.03
462.587	6498.03
462.792	6528.75
462.998	6827.76
463.203	6739.69
463.409	6917.87
463.614	6825.71
463.82	6942.44
464.025	6938.35
464.231	7024.36
464.436	6852.33
464.641	6977.26
464.847	7010.03
465.052	7010.03
465.258	7605.99
465.463	7548.64
465.669	7055.08
465.874	7253.73
466.079	7306.98
466.285	7507.68
466.49	7501.54
466.695	7534.31
466.901	7714.53
467.106	7571.17
467.311	7636.7
467.516	7775.97
467.722	7857.89
467.927	7857.89
468.132	7962.33
468.338	7993.05
468.543	7948
468.748	8025.82
468.953	8273.62
469.158	8378.07
469.364	8304.34
469.569	8357.59
469.774	8287.96
469.979	8754.9
470.184	8924.88
470.389	8615.63
470.594	8638.16
470.8	8621.78
471.005	8865.49
471.21	8632.02
471.415	8937.16
471.62	8689.36
471.825	9223.88
472.03	9180.87
472.235	9160.39
472.44	9187.02
472.645	9473.73
472.85	9418.44
473.055	9756.35
473.26	9481.92
473.465	9938.62
473.67	9606.85
473.875	10167.99
474.08	9850.56
474.285	10389.17
474.49	10124.99
474.695	10268.34
474.899	10337.98
475.104	10614.45
475.309	10393.27
475.514	10725.04
475.719	10579.64
475.924	10477.24
476.128	10905.26
476.333	10974.89
476.538	11099.82
476.743	11126.44
476.948	11017.9
477.152	11075.24
477.357	11355.82
477.562	11294.38
477.767	11404.97
477.971	11400.87
478.176	11531.94
478.381	11620
478.585	11802.27
478.79	11378.34
478.995	12021.41
479.199	12107.42
479.404	11738.79
479.609	11970.21
479.813	12447.38
480.018	12193.44
480.223	12267.16
480.427	12340.89
480.632	12322.46
480.836	12658.32
481.041	12447.38
481.245	12678.8
481.45	12564.12
481.654	13012.62
481.859	12816.02
482.063	12951.18
482.268	13078.16
482.472	13151.88
482.677	13317.77
482.881	13198.99
483.086	13139.6
483.29	13364.87
483.495	13584.01
483.699	13387.4
483.903	13614.73
484.108	13528.71
484.312	13883.01
484.517	13778.56
484.721	13764.23
484.925	13948.54
485.13	13928.06
485.334	13981.31
485.538	13833.86
485.743	13975.17
485.947	14192.25
486.151	13979.26
486.355	14237.31
486.56	14542.46
486.764	14171.77
486.968	14433.91
487.172	14370.43
487.377	14698.1
487.581	14900.85
487.785	14470.78
487.989	14896.75
488.193	14745.2
488.397	14802.55
488.602	15021.68
488.806	14737.01
489.01	15005.3
489.214	15187.57
489.418	14845.55
489.622	15126.13
489.826	14954.1
490.03	15451.75
490.234	15222.38
490.438	15349.36
490.642	15423.08
490.846	15435.37
491.05	15445.61
491.254	15523.43
491.458	15674.98
491.662	15713.89
491.866	15697.51
492.07	15728.23
492.274	15320.68
492.478	15812.2
492.682	15570.54
492.886	16068.19
493.09	15953.51
493.294	15779.43
493.498	16002.66
493.701	16088.67
493.905	16103.01
494.109	16170.59
494.313	16019.04
494.517	16088.67
494.721	16174.69
494.924	16232.03
495.128	16442.97
495.332	16326.24
495.536	16322.14
495.739	16082.53
495.943	16504.41
496.147	16287.32
496.351	16680.53
496.554	16551.51
496.758	16555.61
496.962	16838.23
497.165	16653.91
497.369	16967.25
497.573	17090.13
497.776	16875.09
497.98	17026.64
498.184	17000.02
498.387	17364.56
498.591	17073.74
498.794	16846.42
498.998	17049.17
499.202	17133.14
499.405	17198.67
499.609	17380.94
499.812	17579.59
500.016	17372.75
500.219	17450.57
500.423	17647.18
500.626	17604.17
500.83	17630.79
501.033	17649.22
501.237	17649.22
501.44	17802.82
501.643	17915.46
501.847	17608.26
502.05	17784.39
502.254	17737.29
502.457	17952.32
502.66	17540.68
502.864	17829.45
503.067	18085.44
503.271	17966.66
503.474	18124.35
503.677	18308.67
503.88	17731.14
504.084	18185.79
504.287	18175.55
504.49	18394.68
504.694	18376.25
504.897	18316.86
505.1	18294.33
505.303	18714.17
505.507	18572.86
505.71	18773.56
505.913	18585.15
506.116	18720.31
506.319	18892.34
506.522	18769.46
506.726	19000.88
506.929	18820.66
507.132	18966.07
507.335	18753.08
507.538	18961.97
507.741	19131.95
507.944	19121.71
508.147	19215.92
508.35	19318.32
508.553	19390
508.756	19240.5
508.959	19566.12
509.163	19353.13
509.366	19738.15
509.569	19451.44
509.771	19680.81
509.974	19748.39
510.177	19756.58
510.38	19932.71
510.583	19932.71
510.786	19803.69
510.989	19858.98
511.192	20123.17
511.395	20190.75
511.598	20024.87
511.801	20407.84
512.004	20094.5
512.206	20321.82
512.409	20731.42
512.612	20538.91
512.815	20516.38
513.018	20389.41
513.22	20583.96
513.423	20805.14
513.626	20956.69
513.829	20799
514.032	20803.1
514.234	21261.84
514.437	20831.77
514.64	20749.85
514.842	21186.07
515.045	21222.93
515.248	20958.74
515.45	21536.27
515.653	20911.64
515.856	21685.77
516.058	21671.43
516.261	21368.34
516.464	21362.19
516.666	21812.74
516.869	21882.38
517.071	21898.76
517.274	21865.99
517.477	21939.72
517.679	21728.78
517.882	22255.11
518.084	21837.32
518.287	22490.62
518.489	22189.57
518.692	22009.35
518.894	22582.78
519.097	22384.13
519.299	22412.8
519.501	22570.49
519.704	22472.19
519.906	22810.11
520.109	22255.11
520.311	23100.92
520.514	22400.51
520.716	22849.02
520.918	22713.85
521.121	22939.13
521.323	22965.75
521.525	23598.57
521.728	23084.53
521.93	23193.08
522.132	23102.96
522.335	23414.26
522.537	23191.03
522.739	23539.18
522.941	23610.86
523.144	23473.65
523.346	23608.81
523.548	23688.68
523.75	23528.94
523.952	23647.72
524.155	23627.24
524.357	23598.57
524.559	23789.03
524.761	24172
524.963	24241.64
525.165	24069.61
525.368	24290.79
525.57	24149.48
525.772	24112.61
525.974	24217.06
526.176	24139.24
526.378	24442.34
526.58	24194.53
526.782	24458.72
526.984	24286.69
527.186	24757.72
527.388	24411.62
527.59	24389.09
527.792	24188.39
527.994	25255.38
528.196	24366.56
528.398	24837.59
528.6	24743.39
528.802	25032.15
529.004	24694.24
529.206	24630.75
529.408	24831.45
529.609	25118.17
529.811	24853.98
530.013	25204.18
530.215	25005.53
530.417	25015.77
530.619	25236.95
530.821	25140.69
531.022	25239
531.224	25220.56
531.426	24731.1
531.628	25488.85
531.829	25431.51
532.031	25239
532.233	25613.77
532.435	25771.47
532.636	25933.26
532.838	25726.41
533.04	25365.97
533.241	25984.46
533.443	25730.51
533.645	25421.27
533.846	25646.54
534.048	26035.66
534.25	26164.68
534.451	25920.97
534.653	26109.38
534.855	25699.79
535.056	26392
535.258	26314.18
535.459	26408.39
535.661	26156.49
535.862	26492.35
536.064	26435.01
536.265	26695.1
536.467	26308.04
536.668	26537.41
536.87	26713.53
537.071	26498.5
537.273	26226.12
537.474	26541.5
537.676	26750.4
537.877	26736.06
538.078	26521.02
538.28	26293.7
538.481	27088.31
538.683	27053.5
538.884	27458.99
539.085	26809.79
539.287	27041.21
539.488	26901.95
539.689	27231.67
539.891	27125.18
540.092	27045.3
540.293	27565.49
540.495	27086.26
540.696	28018.09
540.897	27491.76
541.098	28087.72
541.3	27905.45
541.501	27487.67
541.702	27880.88
541.903	28247.46
542.104	27649.46
542.306	27925.93
542.507	27700.65
542.708	27901.36
542.909	28192.17
543.11	27997.61
543.311	28214.69
543.512	27700.65
543.713	28267.94
543.915	28618.14
544.116	28784.03
544.317	28368.29
544.518	28442.02
544.719	28712.35
544.92	28810.65
545.121	28876.19
545.322	28634.53
545.523	28974.49
545.724	28796.32
545.925	29070.75
546.126	29113.75
546.327	29126.04
546.528	29089.18
546.729	28966.3
546.929	29279.64
547.13	28816.8
547.331	29218.2
547.532	29242.78
547.733	29826.45
547.934	29246.87
548.135	30006.67
548.336	29791.63
548.536	30207.37
548.737	29943.18
548.938	29762.96
549.139	29797.77
549.34	30367.11
549.54	29765.01
549.741	29662.61
549.942	30410.12
550.143	29908.36
550.343	30279.05
550.544	30561.67
550.745	30702.98
550.945	30571.91
551.146	30840.19
551.347	30410.12
551.547	30864.77
551.748	30621.06
551.949	30987.64
552.149	30993.79
552.35	30903.68
552.551	30907.77
552.751	31051.13
552.952	31315.32
553.152	31655.28
553.353	31698.29
553.553	31948.14
553.754	31509.88
553.954	31477.11
554.155	31827.31
554.356	31638.9
554.556	31542.64
554.756	31882.61
554.957	31683.95
555.157	31997.29
555.358	32073.07
555.558	31968.62
555.759	32021.87
555.959	32062.83
556.159	32243.05
556.36	32433.51
556.56	32200.04
556.761	32437.61
556.961	32638.31
557.161	32988.51
557.362	33226.07
557.562	32900.45
557.762	33252.7
557.963	32867.68
558.163	33441.11
558.363	33197.4
558.563	32984.41
558.764	32955.74
558.964	33473.88
559.164	33561.94
559.364	33670.48
559.565	33738.07
559.765	33523.03
559.965	33619.28
560.165	33563.99
560.365	34233.67
560.565	33719.63
560.766	34741.57
560.966	34506.05
561.166	34266.44
561.366	34479.43
561.566	34465.1
561.766	34481.48
561.966	34485.58
562.166	34043.21
562.366	34309.45
562.566	34450.76
562.766	34508.1
562.966	34483.53
563.166	34729.28
563.366	35163.45
563.566	34792.77
563.766	34944.32
563.966	35673.4
564.166	35388.73
564.366	35589.43
564.566	35462.46
564.766	35984.69
564.966	35804.47
565.166	35370.3
565.366	35599.67
565.565	35669.3
565.765	35890.48
565.965	36042.03
566.165	36021.55
566.365	36171.05
566.565	35820.85
566.764	35988.78
566.964	36054.32
567.164	35923.25
567.364	35917.11
567.564	36160.81
567.763	35857.71
567.963	36781.35
568.163	35841.33
568.362	36107.57
568.562	36793.64
568.762	36521.26
568.961	36764.96
569.161	36287.79
569.361	36551.98
569.56	37319.96
569.76	36891.94
569.96	37319.96
570.159	37141.79
570.359	37041.44
570.558	37612.82
570.758	36996.38
570.958	36832.55
571.157	37453.08
571.357	36648.23
571.556	37174.56
571.756	37422.36
571.955	37362.97
572.155	37483.8
572.354	37512.47
572.554	37752.09
572.753	37182.75
572.953	37369.12
573.152	37086.5
573.351	37381.4
573.551	37518.62
573.75	37074.21
573.95	37668.12
574.149	37801.24
574.348	37326.11
574.548	37168.41
574.747	37618.97
574.946	37631.26
575.146	37756.18
575.345	37844.24
575.544	37446.94
575.744	37156.13
575.943	38100.24
576.142	37559.58
576.342	38137.1
576.541	38071.57
576.74	37393.69
576.939	38272.27
577.138	37879.06
577.338	38302.99
577.537	37920.02
577.736	37946.64
577.935	37922.07
578.134	38194.45
578.333	38196.49
578.533	38325.52
578.732	38581.51
578.931	37784.85
579.13	37973.27
579.329	38315.28
579.528	37666.07
579.727	38069.52
579.926	38454.54
580.125	37905.68
580.324	38393.1
580.523	38106.38
580.722	37940.5
580.921	38124.82
581.12	38253.84
581.319	38030.61
581.518	38636.81
581.717	37948.69
581.916	38153.49
582.115	38450.44
582.314	38485.26
582.513	38389
582.712	37489.95
582.911	38094.1
583.109	37936.4
583.308	38147.34
